timestamps,TP9,AF7,AF8,TP10,Right AUX
1718226378.666,-36.133,-33.691,-54.199,-55.664,0.000
1718226378.670,-60.547,-44.922,-57.617,-59.570,0.000
1718226378.674,-74.707,-47.852,-60.059,-66.406,0.000
1718226378.678,-68.359,-48.340,-63.477,-66.895,0.000
1718226378.682,-54.199,-43.457,-59.082,-58.105,0.000
1718226378.686,-50.293,-48.340,-55.664,-49.805,0.000
1718226378.690,-58.594,-54.199,-54.688,-42.969,0.000
1718226378.694,-62.988,-54.688,-51.270,-53.223,0.000
1718226378.697,-54.688,-48.828,-39.062,-42.969,0.000
1718226378.701,-54.199,-41.504,-37.109,-33.203,0.000
1718226378.705,-56.641,-42.969,-35.645,-43.945,0.000
1718226378.709,-59.082,-51.758,-43.457,-54.199,0.000
1718226378.713,-64.941,-53.223,-60.547,-62.500,0.000
1718226378.717,-62.988,-47.363,-48.340,-47.363,0.000
1718226378.721,-69.336,-59.570,-42.480,-47.852,0.000
1718226378.725,-69.336,-65.430,-48.828,-65.430,0.000
1718226378.729,-62.500,-59.082,-46.875,-66.895,0.000
1718226378.733,-70.801,-65.918,-39.062,-53.223,0.000
1718226378.736,-75.684,-68.359,-42.480,-40.527,0.000
1718226378.740,-65.430,-60.547,-52.734,-52.734,0.000
1718226378.744,-51.270,-55.664,-46.387,-53.711,0.000
1718226378.748,-61.523,-60.547,-38.086,-56.641,0.000
1718226378.752,-71.289,-66.895,-37.109,-71.289,0.000
1718226378.756,-57.129,-62.012,-28.320,-67.383,0.000
1718226378.760,-43.457,-58.105,-20.508,-55.664,0.000
1718226378.764,-48.340,-55.664,-40.527,-60.547,0.000
1718226378.768,-51.270,-40.527,-40.527,-49.316,0.000
1718226378.772,-39.062,-40.527,-36.133,-50.781,0.000
1718226378.776,-39.062,-49.805,-43.945,-59.570,0.000
1718226378.779,-54.688,-55.664,-48.340,-57.129,0.000
1718226378.783,-54.199,-60.547,-45.898,-55.664,0.000
1718226378.787,-37.109,-52.734,-40.039,-48.828,0.000
1718226378.791,-27.344,-43.945,-45.410,-38.086,0.000
1718226378.795,-28.809,-41.016,-36.621,-24.902,0.000
1718226378.799,-50.781,-49.805,-37.109,-42.969,0.000
1718226378.803,-63.477,-62.500,-40.527,-54.688,0.000
1718226378.807,-43.945,-59.082,-34.180,-35.645,0.000
1718226378.811,-51.758,-56.152,-41.992,-36.133,0.000
1718226378.815,-59.082,-46.387,-44.434,-57.129,0.000
1718226378.819,-54.199,-39.062,-38.574,-58.105,0.000
1718226378.822,-49.805,-42.480,-42.969,-36.133,0.000
1718226378.826,-54.688,-46.387,-40.527,-30.273,0.000
1718226378.830,-72.754,-50.293,-42.969,-52.734,0.000
1718226378.834,-78.613,-51.270,-40.527,-60.059,0.000
1718226378.838,-58.594,-51.270,-36.133,-35.156,0.000
1718226378.842,-57.129,-57.129,-41.504,-33.691,0.000
1718226378.846,-57.129,-62.988,-49.805,-55.176,0.000
1718226378.850,-34.180,-61.523,-47.852,-48.340,0.000
1718226378.854,-24.902,-46.875,-46.387,-37.598,0.000
1718226378.858,-30.273,-41.992,-39.062,-41.992,0.000
1718226378.861,-39.551,-58.594,-40.039,-55.664,0.000
1718226378.865,-39.062,-51.270,-44.434,-59.570,0.000
1718226378.869,-42.969,-46.875,-52.734,-63.477,0.000
1718226378.873,-52.734,-50.293,-68.359,-66.406,0.000
1718226378.877,-41.016,-44.922,-54.199,-62.500,0.000
1718226378.881,-49.316,-43.457,-38.086,-66.406,0.000
1718226378.885,-69.824,-42.480,-39.551,-68.359,0.000
1718226378.889,-60.547,-38.086,-37.109,-63.965,0.000
1718226378.893,-44.434,-39.551,-35.156,-58.594,0.000
1718226378.897,-33.203,-37.109,-36.133,-48.340,0.000
1718226378.901,-48.828,-44.434,-42.969,-54.199,0.000
1718226378.904,-59.570,-56.152,-37.109,-53.223,0.000
1718226378.908,-52.246,-56.152,-25.391,-39.551,0.000
1718226378.912,-63.477,-61.523,-30.762,-37.598,0.000
1718226378.916,-70.312,-62.500,-50.781,-46.387,0.000
1718226378.920,-64.453,-59.570,-56.152,-57.129,0.000
1718226378.924,-65.430,-54.688,-57.617,-56.641,0.000
1718226378.928,-51.270,-48.828,-60.547,-44.434,0.000
1718226378.932,-32.715,-48.340,-42.480,-24.902,0.000
1718226378.936,-50.293,-41.504,-29.785,-43.945,0.000
1718226378.940,-68.848,-37.598,-31.738,-58.105,0.000
1718226378.944,-50.293,-43.457,-31.250,-41.992,0.000
1718226378.947,-43.457,-42.480,-31.738,-28.320,0.000
1718226378.951,-62.988,-47.852,-42.969,-43.945,0.000
1718226378.955,-59.082,-56.152,-50.293,-63.477,0.000
1718226378.959,-58.105,-58.594,-48.340,-70.312,0.000
1718226378.963,-62.500,-54.688,-37.598,-65.430,0.000
1718226378.967,-60.059,-56.152,-37.598,-59.082,0.000
1718226378.971,-66.895,-63.477,-46.875,-57.129,0.000
1718226378.975,-62.988,-59.082,-46.875,-56.641,0.000
1718226378.979,-56.152,-52.246,-45.898,-79.590,0.000
1718226378.983,-58.105,-45.898,-49.316,-72.266,0.000
1718226378.986,-62.012,-52.246,-47.363,-50.293,0.000
1718226378.990,-64.941,-56.152,-46.387,-56.641,0.000
1718226378.994,-79.590,-44.922,-46.875,-73.730,0.000
1718226378.998,-83.496,-51.270,-46.387,-80.566,0.000
1718226379.002,-53.711,-50.293,-35.156,-53.711,0.000
1718226379.006,-47.852,-43.457,-33.203,-41.992,0.000
1718226379.010,-68.848,-52.246,-49.316,-81.543,0.000
1718226379.014,-77.148,-56.641,-55.176,-84.473,0.000
1718226379.018,-74.707,-52.246,-39.551,-57.617,0.000
1718226379.022,-71.289,-56.641,-35.645,-60.547,0.000
1718226379.026,-55.664,-62.988,-41.016,-54.688,0.000
1718226379.029,-44.922,-48.828,-33.691,-44.434,0.000
1718226379.033,-47.852,-42.480,-49.805,-62.500,0.000
1718226379.037,-41.016,-48.340,-47.363,-46.875,0.000
1718226379.041,-44.922,-48.340,-35.156,-38.574,0.000
1718226379.045,-52.246,-54.199,-40.039,-59.570,0.000
1718226379.049,-44.922,-53.223,-48.828,-49.805,0.000
1718226379.053,-38.574,-43.457,-47.852,-46.875,0.000
1718226379.057,-34.668,-43.945,-31.250,-51.758,0.000
1718226379.061,-40.039,-52.246,-33.691,-49.805,0.000
1718226379.065,-50.293,-55.176,-41.992,-51.758,0.000
1718226379.069,-46.875,-51.270,-34.180,-47.852,0.000
1718226379.072,-32.715,-48.340,-33.691,-47.852,0.000
1718226379.076,-28.320,-43.457,-41.016,-37.598,0.000
1718226379.080,-49.316,-39.062,-40.527,-31.250,0.000
1718226379.084,-47.363,-36.133,-46.387,-51.758,0.000
1718226379.088,-31.738,-26.855,-42.969,-48.340,0.000
1718226379.092,-50.293,-32.715,-43.945,-43.457,0.000
1718226379.096,-74.219,-46.387,-44.434,-69.336,0.000
1718226379.100,-79.590,-50.293,-35.156,-71.777,0.000
1718226379.104,-76.172,-54.199,-38.574,-53.223,0.000
1718226379.108,-60.547,-49.805,-36.133,-43.457,0.000
1718226379.111,-63.477,-43.945,-36.621,-49.316,0.000
1718226379.115,-67.871,-46.387,-40.527,-57.129,0.000
1718226379.119,-48.340,-38.574,-39.551,-41.992,0.000
1718226379.123,-46.387,-38.086,-39.062,-33.203,0.000
1718226379.127,-52.246,-36.133,-33.203,-35.645,0.000
1718226379.131,-48.340,-36.133,-29.785,-33.203,0.000
1718226379.135,-60.059,-43.457,-33.203,-38.086,0.000
1718226379.139,-65.430,-45.898,-35.645,-47.363,0.000
1718226379.143,-65.918,-47.852,-38.086,-41.992,0.000
1718226379.147,-57.129,-46.875,-34.180,-45.898,0.000
1718226379.151,-41.016,-49.316,-38.086,-42.480,0.000
1718226379.154,-41.504,-52.734,-49.805,-29.785,0.000
1718226379.158,-51.270,-50.781,-38.086,-45.410,0.000
1718226379.162,-52.246,-38.086,-35.645,-47.363,0.000
1718226379.166,-38.086,-30.762,-33.691,-34.668,0.000
1718226379.170,-39.551,-41.504,-38.574,-50.781,0.000
1718226379.174,-31.738,-36.133,-39.551,-43.945,0.000
1718226379.178,-27.832,-21.973,-26.367,-37.598,0.000
1718226379.182,-44.922,-33.691,-32.227,-56.641,0.000
1718226379.186,-55.664,-40.039,-41.504,-62.012,0.000
1718226379.190,-48.340,-38.574,-48.828,-58.105,0.000
1718226379.194,-41.992,-40.527,-54.199,-60.547,0.000
1718226379.197,-49.805,-35.645,-60.547,-59.082,0.000
1718226379.201,-52.734,-39.551,-54.199,-63.477,0.000
1718226379.205,-52.246,-46.387,-49.316,-65.918,0.000
1718226379.209,-40.527,-45.410,-50.781,-53.223,0.000
1718226379.213,-40.527,-42.480,-51.270,-43.457,0.000
1718226379.217,-41.992,-36.133,-52.734,-28.809,0.000
1718226379.221,-47.363,-33.691,-45.410,-38.574,0.000
1718226379.225,-59.082,-39.551,-42.969,-48.828,0.000
1718226379.229,-36.621,-36.621,-40.527,-33.691,0.000
1718226379.233,-33.691,-38.086,-58.105,-43.457,0.000
1718226379.237,-33.203,-36.621,-61.523,-46.875,0.000
1718226379.240,-18.555,-37.109,-49.316,-34.668,0.000
1718226379.244,-16.602,-40.039,-49.316,-25.879,0.000
1718226379.248,-28.320,-41.992,-50.293,-32.715,0.000
1718226379.252,-33.691,-43.457,-49.805,-36.621,0.000
1718226379.256,-26.855,-45.898,-45.898,-24.902,0.000
1718226379.260,-31.738,-44.922,-48.828,-20.508,0.000
1718226379.264,-39.062,-41.016,-48.828,-39.551,0.000
1718226379.268,-39.551,-37.598,-52.246,-47.363,0.000
1718226379.272,-39.062,-36.621,-46.875,-41.016,0.000
1718226379.276,-35.645,-36.621,-43.457,-40.039,0.000
1718226379.279,-37.109,-42.480,-46.875,-48.340,0.000
1718226379.283,-40.039,-46.387,-44.434,-59.082,0.000
1718226379.287,-33.203,-39.551,-42.969,-46.387,0.000
1718226379.291,-23.926,-31.250,-48.340,-41.016,0.000
1718226379.295,-37.598,-32.227,-46.875,-36.133,0.000
1718226379.299,-51.758,-44.434,-48.828,-48.828,0.000
1718226379.303,-53.223,-46.875,-45.410,-52.734,0.000
1718226379.307,-47.852,-52.734,-43.457,-31.250,0.000
1718226379.311,-39.551,-59.082,-46.875,-36.133,0.000
1718226379.315,-23.438,-50.781,-49.316,-35.156,0.000
1718226379.319,-15.625,-44.434,-66.895,-37.598,0.000
1718226379.322,-16.602,-47.852,-58.105,-44.922,0.000
1718226379.326,-21.484,-48.828,-49.805,-34.180,0.000
1718226379.330,-34.180,-48.828,-57.617,-27.832,0.000
1718226379.334,-15.625,-47.363,-43.945,-11.719,0.000
1718226379.338,-8.789,-45.898,-40.039,-10.742,0.000
1718226379.342,-32.715,-59.570,-47.363,-20.020,0.000
1718226379.346,-34.180,-62.500,-48.828,-25.391,0.000
1718226379.350,-25.391,-52.734,-56.152,-22.949,0.000
1718226379.354,-22.461,-48.828,-56.641,-25.391,0.000
1718226379.358,-21.484,-46.387,-51.758,-45.410,0.000
1718226379.362,-40.039,-52.734,-47.852,-57.617,0.000
1718226379.365,-30.762,-45.898,-41.016,-42.969,0.000
1718226379.369,-29.785,-44.434,-42.480,-38.086,0.000
1718226379.373,-43.457,-56.152,-54.688,-44.434,0.000
1718226379.377,-31.250,-51.270,-46.875,-36.133,0.000
1718226379.381,-39.062,-51.758,-43.945,-32.715,0.000
1718226379.385,-47.363,-56.641,-42.969,-39.551,0.000
1718226379.389,-41.504,-57.617,-39.551,-37.109,0.000
1718226379.393,-28.809,-56.152,-43.945,-15.625,0.000
1718226379.397,-10.254,-40.527,-40.039,-4.395,0.000
1718226379.401,-17.578,-36.133,-38.574,-29.785,0.000
1718226379.404,-29.785,-38.574,-33.691,-41.504,0.000
1718226379.408,-26.855,-42.969,-42.480,-36.621,0.000
1718226379.412,-20.996,-46.387,-55.664,-36.133,0.000
1718226379.416,-24.902,-44.922,-54.688,-35.156,0.000
1718226379.420,-25.879,-46.387,-47.852,-33.691,0.000
1718226379.424,-18.066,-48.828,-44.922,-21.973,0.000
1718226379.428,-19.531,-45.410,-51.758,-18.555,0.000
1718226379.432,-16.602,-32.715,-47.852,-13.672,0.000
1718226379.436,-3.418,-27.832,-41.016,-12.695,0.000
1718226379.440,-1.953,-34.668,-41.016,-25.391,0.000
1718226379.444,-15.137,-38.574,-39.551,-40.527,0.000
1718226379.447,-19.531,-28.809,-36.133,-39.551,0.000
1718226379.451,-31.250,-35.645,-32.227,-31.250,0.000
1718226379.455,-38.574,-45.410,-40.039,-46.387,0.000
1718226379.459,-46.875,-40.527,-44.922,-50.293,0.000
1718226379.463,-50.781,-41.504,-46.387,-36.621,0.000
1718226379.467,-45.410,-46.387,-55.664,-46.387,0.000
1718226379.471,-32.715,-38.574,-50.293,-43.457,0.000
1718226379.475,-40.527,-40.039,-31.738,-43.945,0.000
1718226379.479,-46.387,-51.758,-31.250,-47.363,0.000
1718226379.483,-22.949,-49.805,-37.598,-26.367,0.000
1718226379.487,-25.879,-55.176,-46.875,-21.484,0.000
1718226379.490,-33.203,-47.363,-59.570,-38.574,0.000
1718226379.494,-29.297,-35.645,-50.293,-41.016,0.000
1718226379.498,-26.367,-43.945,-41.504,-33.203,0.000
1718226379.502,-18.555,-44.922,-44.434,-37.598,0.000
1718226379.506,-15.137,-41.992,-41.016,-34.180,0.000
1718226379.510,-21.973,-45.898,-38.574,-30.762,0.000
1718226379.514,-29.297,-51.270,-55.664,-33.203,0.000
1718226379.518,-22.949,-43.945,-53.223,-29.297,0.000
1718226379.522,-17.578,-40.039,-43.457,-27.344,0.000
1718226379.526,-16.113,-50.781,-47.852,-30.273,0.000
1718226379.529,-19.531,-52.246,-51.270,-20.020,0.000
1718226379.533,-31.738,-50.293,-58.594,-18.066,0.000
1718226379.537,-30.762,-48.828,-56.641,-22.461,0.000
1718226379.541,-13.184,-39.062,-49.805,-10.742,0.000
1718226379.545,-28.320,-48.340,-69.336,-24.414,0.000
1718226379.549,-66.406,-63.477,-73.242,-54.199,0.000
1718226379.553,-60.547,-55.664,-60.547,-57.129,0.000
1718226379.557,-27.344,-48.828,-59.082,-41.992,0.000
1718226379.561,-29.297,-46.875,-52.246,-34.180,0.000
1718226379.565,-46.387,-41.992,-46.387,-29.785,0.000
1718226379.569,-56.641,-48.828,-49.316,-35.645,0.000
1718226379.572,-55.664,-51.758,-48.340,-32.227,0.000
1718226379.576,-40.527,-45.898,-41.504,-26.855,0.000
1718226379.580,-40.039,-46.875,-53.711,-62.988,0.000
1718226379.584,-31.738,-41.016,-54.199,-59.570,0.000
1718226379.588,-35.645,-45.898,-61.035,-39.062,0.000
1718226379.592,-45.898,-42.969,-69.824,-43.457,0.000
1718226379.596,-40.039,-40.527,-61.523,-45.410,0.000
1718226379.600,-34.668,-40.527,-56.152,-36.133,0.000
1718226379.604,-41.992,-42.480,-52.734,-42.480,0.000
1718226379.608,-45.410,-45.898,-55.176,-48.828,0.000
1718226379.612,-31.738,-43.457,-60.547,-40.039,0.000
1718226379.615,-21.973,-37.109,-55.176,-25.879,0.000
1718226379.619,-33.691,-36.133,-44.922,-22.461,0.000
1718226379.623,-38.574,-40.039,-52.246,-34.180,0.000
1718226379.627,-36.621,-45.410,-61.523,-32.715,0.000
1718226379.631,-45.898,-48.828,-59.082,-31.738,0.000
1718226379.635,-47.852,-46.875,-45.410,-29.785,0.000
1718226379.639,-45.898,-48.340,-44.922,-32.227,0.000
1718226379.643,-24.414,-32.227,-47.852,-35.156,0.000
1718226379.647,-21.484,-23.926,-43.457,-36.621,0.000
1718226379.651,-51.758,-40.039,-44.922,-48.828,0.000
1718226379.654,-68.848,-44.922,-44.434,-55.664,0.000
1718226379.658,-48.340,-50.781,-47.852,-55.664,0.000
1718226379.662,-42.480,-57.129,-56.152,-61.523,0.000
1718226379.666,-53.711,-53.711,-56.152,-62.500,0.000
1718226379.670,-46.387,-53.711,-48.828,-58.594,0.000
1718226379.674,-54.199,-49.805,-51.758,-55.176,0.000
1718226379.678,-60.059,-53.223,-50.293,-52.246,0.000
1718226379.682,-47.852,-56.641,-39.062,-34.668,0.000
1718226379.686,-33.203,-40.527,-40.527,-42.969,0.000
1718226379.690,-44.922,-36.133,-53.223,-64.941,0.000
1718226379.694,-44.434,-39.551,-47.363,-55.664,0.000
1718226379.697,-37.598,-36.133,-36.133,-42.969,0.000
1718226379.701,-41.992,-42.480,-31.250,-45.410,0.000
1718226379.705,-45.410,-45.898,-38.086,-46.875,0.000
1718226379.709,-51.270,-40.527,-44.434,-38.086,0.000
1718226379.713,-45.898,-45.898,-36.621,-29.785,0.000
1718226379.717,-47.363,-47.852,-41.504,-51.758,0.000
1718226379.721,-55.664,-41.504,-56.152,-62.500,0.000
1718226379.725,-60.059,-50.781,-52.246,-52.246,0.000
1718226379.729,-70.801,-55.664,-39.062,-59.570,0.000
1718226379.733,-62.500,-44.434,-44.434,-68.359,0.000
1718226379.737,-45.410,-41.504,-40.039,-53.711,0.000
1718226379.740,-47.363,-43.945,-31.738,-52.246,0.000
1718226379.744,-56.641,-41.504,-40.527,-66.406,0.000
1718226379.748,-55.664,-44.922,-39.551,-64.941,0.000
1718226379.752,-50.293,-53.711,-38.574,-59.082,0.000
1718226379.756,-53.711,-42.969,-33.691,-42.480,0.000
1718226379.760,-63.477,-41.992,-43.945,-50.781,0.000
1718226379.764,-70.801,-59.082,-65.918,-72.266,0.000
1718226379.768,-62.500,-57.617,-53.711,-56.641,0.000
1718226379.772,-60.547,-48.340,-43.945,-62.988,0.000
1718226379.776,-58.105,-41.504,-45.898,-74.219,0.000
1718226379.779,-64.941,-41.992,-47.363,-66.406,0.000
1718226379.783,-69.824,-49.316,-44.922,-62.988,0.000
1718226379.787,-63.477,-48.828,-41.504,-58.105,0.000
1718226379.791,-55.176,-38.086,-39.551,-63.965,0.000
1718226379.795,-53.711,-40.039,-44.434,-61.035,0.000
1718226379.799,-67.871,-47.363,-47.363,-59.570,0.000
1718226379.803,-66.895,-55.664,-38.574,-63.477,0.000
1718226379.807,-44.922,-49.805,-41.992,-50.781,0.000
1718226379.811,-52.246,-48.340,-54.688,-54.688,0.000
1718226379.815,-55.664,-46.875,-54.688,-50.781,0.000
1718226379.819,-46.875,-37.109,-60.547,-48.828,0.000
1718226379.822,-51.270,-37.109,-55.664,-57.617,0.000
1718226379.826,-59.570,-37.598,-41.992,-64.453,0.000
1718226379.830,-61.523,-39.062,-51.270,-63.477,0.000
1718226379.834,-56.641,-42.480,-47.852,-41.016,0.000
1718226379.838,-62.012,-43.457,-41.504,-47.852,0.000
1718226379.842,-58.105,-44.434,-49.316,-51.270,0.000
1718226379.846,-55.176,-45.898,-54.688,-42.969,0.000
1718226379.850,-69.824,-53.711,-53.711,-60.547,0.000
1718226379.854,-67.383,-58.594,-49.805,-67.383,0.000
1718226379.858,-52.246,-58.105,-49.316,-50.293,0.000
1718226379.862,-53.711,-49.805,-62.988,-46.387,0.000
1718226379.865,-45.410,-34.668,-56.152,-62.500,0.000
1718226379.869,-47.363,-35.156,-25.391,-55.664,0.000
1718226379.873,-61.035,-42.969,-35.645,-47.363,0.000
1718226379.877,-44.434,-38.574,-53.223,-48.340,0.000
1718226379.881,-43.457,-40.039,-52.246,-57.617,0.000
1718226379.885,-57.617,-41.992,-39.551,-62.500,0.000
1718226379.889,-58.594,-34.668,-40.527,-65.430,0.000
1718226379.893,-57.617,-38.086,-55.176,-70.801,0.000
1718226379.897,-50.293,-41.504,-52.246,-56.152,0.000
1718226379.901,-49.805,-41.016,-47.363,-43.945,0.000
1718226379.905,-50.293,-44.434,-51.758,-46.387,0.000
1718226379.908,-49.316,-40.527,-56.152,-50.293,0.000
1718226379.912,-44.434,-29.785,-51.758,-41.992,0.000
1718226379.916,-40.527,-25.879,-51.758,-40.527,0.000
1718226379.920,-55.664,-37.109,-51.758,-45.410,0.000
1718226379.924,-61.523,-33.691,-35.156,-63.477,0.000
1718226379.928,-62.500,-20.996,-31.250,-76.172,0.000
1718226379.932,-50.781,-25.391,-36.133,-59.082,0.000
1718226379.936,-33.691,-21.484,-40.527,-34.668,0.000
1718226379.940,-37.598,-22.461,-49.805,-38.574,0.000
1718226379.944,-66.406,-32.227,-44.434,-65.918,0.000
1718226379.948,-81.543,-37.598,-37.109,-62.500,0.000
1718226379.951,-76.172,-41.504,-50.293,-57.129,0.000
1718226379.955,-65.918,-41.504,-60.547,-64.453,0.000
1718226379.959,-48.340,-34.668,-60.547,-61.035,0.000
1718226379.963,-35.156,-23.926,-52.734,-32.715,0.000
1718226379.967,-50.293,-32.227,-50.293,-33.203,0.000
1718226379.971,-62.500,-39.062,-62.500,-67.383,0.000
1718226379.975,-53.223,-32.227,-49.805,-56.152,0.000
1718226379.979,-50.781,-30.273,-38.086,-49.805,0.000
1718226379.983,-39.062,-20.020,-60.059,-48.340,0.000
1718226379.987,-35.645,-13.672,-64.453,-41.992,0.000
1718226379.990,-47.363,-20.996,-48.828,-41.504,0.000
1718226379.994,-55.664,-28.809,-47.363,-62.988,0.000
1718226379.998,-58.594,-36.621,-48.828,-66.406,0.000
1718226380.002,-48.340,-31.738,-42.480,-44.922,0.000
1718226380.006,-39.551,-27.832,-45.898,-40.039,0.000
1718226380.010,-42.969,-39.062,-42.969,-53.223,0.000
1718226380.014,-53.223,-38.574,-49.805,-63.477,0.000
1718226380.018,-53.223,-38.086,-60.059,-51.270,0.000
1718226380.022,-38.574,-42.969,-51.270,-29.297,0.000
1718226380.026,-29.785,-43.945,-52.246,-32.715,0.000
1718226380.030,-47.363,-48.340,-57.617,-53.223,0.000
1718226380.033,-50.781,-45.410,-58.594,-50.293,0.000
1718226380.037,-40.039,-40.039,-58.105,-52.734,0.000
1718226380.041,-42.480,-38.086,-57.129,-49.805,0.000
1718226380.045,-42.480,-36.133,-54.688,-39.551,0.000
1718226380.049,-45.898,-34.668,-43.457,-41.504,0.000
1718226380.053,-41.992,-36.621,-47.363,-30.273,0.000
1718226380.057,-35.156,-33.203,-70.801,-32.715,0.000
1718226380.061,-27.344,-24.414,-58.105,-42.480,0.000
1718226380.065,-22.949,-25.391,-31.250,-35.645,0.000
1718226380.069,-42.969,-30.762,-33.691,-47.363,0.000
1718226380.073,-63.965,-34.180,-39.551,-63.477,0.000
1718226380.076,-57.617,-32.227,-43.457,-61.035,0.000
1718226380.080,-38.086,-28.320,-59.082,-53.223,0.000
1718226380.084,-37.109,-37.598,-56.152,-54.199,0.000
1718226380.088,-41.992,-33.203,-39.551,-56.152,0.000
1718226380.092,-39.551,-31.738,-40.527,-49.316,0.000
1718226380.096,-33.203,-43.457,-52.734,-45.410,0.000
1718226380.100,-26.367,-43.945,-69.824,-41.504,0.000
1718226380.104,-33.203,-41.992,-52.734,-42.480,0.000
1718226380.108,-36.133,-41.016,-33.691,-47.363,0.000
1718226380.112,-33.203,-41.016,-33.203,-39.062,0.000
1718226380.116,-39.062,-41.504,-43.457,-38.086,0.000
1718226380.119,-39.062,-34.668,-45.898,-46.387,0.000
1718226380.123,-40.039,-30.762,-38.086,-32.227,0.000
1718226380.127,-50.781,-36.621,-38.574,-26.367,0.000
1718226380.131,-53.711,-47.363,-52.734,-30.273,0.000
1718226380.135,-50.781,-46.387,-52.734,-32.227,0.000
1718226380.139,-41.016,-47.852,-41.016,-25.879,0.000
1718226380.143,-31.250,-46.875,-42.480,-18.066,0.000
1718226380.147,-34.668,-40.527,-45.898,-33.203,0.000
1718226380.151,-41.992,-35.156,-46.875,-46.875,0.000
1718226380.155,-27.832,-25.391,-44.922,-31.250,0.000
1718226380.158,-31.738,-34.668,-38.574,-39.551,0.000
1718226380.162,-56.152,-39.551,-40.039,-56.152,0.000
1718226380.166,-56.641,-39.551,-49.316,-53.711,0.000
1718226380.170,-47.852,-42.480,-41.016,-50.293,0.000
1718226380.174,-48.340,-43.945,-43.945,-51.758,0.000
1718226380.178,-44.922,-41.504,-49.316,-64.453,0.000
1718226380.182,-43.945,-35.156,-34.668,-58.594,0.000
1718226380.186,-43.945,-46.875,-38.574,-49.805,0.000
1718226380.190,-44.434,-56.152,-60.059,-54.199,0.000
1718226380.194,-44.922,-50.293,-63.965,-63.477,0.000
1718226380.198,-39.551,-39.551,-46.875,-53.223,0.000
1718226380.201,-33.691,-30.762,-31.250,-25.391,0.000
1718226380.205,-35.156,-34.180,-49.316,-31.250,0.000
1718226380.209,-43.945,-36.133,-65.918,-43.457,0.000
1718226380.213,-44.434,-41.504,-47.852,-32.715,0.000
1718226380.217,-47.852,-51.758,-38.086,-29.785,0.000
1718226380.221,-47.852,-54.688,-50.293,-36.621,0.000
1718226380.225,-32.227,-49.316,-48.340,-32.227,0.000
1718226380.229,-23.926,-38.574,-39.551,-18.555,0.000
1718226380.233,-40.039,-46.875,-45.410,-19.043,0.000
1718226380.237,-48.828,-55.664,-40.527,-31.738,0.000
1718226380.241,-37.109,-48.828,-41.016,-31.738,0.000
1718226380.244,-34.180,-46.387,-59.082,-39.062,0.000
1718226380.248,-28.809,-48.828,-56.152,-35.645,0.000
1718226380.252,-31.250,-53.711,-53.223,-31.738,0.000
1718226380.256,-37.598,-49.805,-56.641,-43.457,0.000
1718226380.260,-46.387,-48.828,-43.457,-47.852,0.000
1718226380.264,-61.035,-56.641,-40.527,-60.059,0.000
1718226380.268,-51.270,-58.105,-55.176,-70.312,0.000
1718226380.272,-41.016,-51.270,-59.570,-69.336,0.000
1718226380.276,-54.688,-46.387,-51.758,-60.547,0.000
1718226380.280,-53.223,-53.223,-50.293,-52.734,0.000
1718226380.283,-48.340,-54.688,-50.293,-62.500,0.000
1718226380.287,-61.035,-50.293,-49.805,-60.059,0.000
1718226380.291,-59.570,-47.363,-40.527,-48.828,0.000
1718226380.295,-58.105,-48.828,-35.156,-46.875,0.000
1718226380.299,-54.688,-50.293,-49.316,-45.898,0.000
1718226380.303,-44.922,-52.246,-46.387,-46.875,0.000
1718226380.307,-39.551,-49.316,-40.527,-37.109,0.000
1718226380.311,-33.203,-46.387,-43.945,-25.391,0.000
1718226380.315,-43.945,-46.387,-46.387,-41.016,0.000
1718226380.319,-52.246,-49.805,-55.664,-47.363,0.000
1718226380.323,-37.598,-50.781,-54.199,-33.691,0.000
1718226380.326,-30.762,-45.410,-47.852,-33.691,0.000
1718226380.330,-26.855,-40.039,-38.574,-28.809,0.000
1718226380.334,-15.137,-40.527,-33.691,-25.879,0.000
1718226380.338,-23.926,-49.805,-43.945,-21.484,0.000
1718226380.342,-34.180,-57.617,-44.434,-21.484,0.000
1718226380.346,-27.344,-54.688,-37.598,-39.062,0.000
1718226380.350,-23.438,-53.711,-38.574,-38.086,0.000
1718226380.354,-20.508,-54.688,-42.480,-29.785,0.000
1718226380.358,-33.203,-49.805,-36.621,-44.922,0.000
1718226380.362,-35.156,-50.293,-35.645,-48.340,0.000
1718226380.366,-29.785,-53.223,-45.898,-42.969,0.000
1718226380.369,-40.039,-55.176,-62.500,-53.711,0.000
1718226380.373,-37.109,-55.664,-51.758,-37.598,0.000
1718226380.377,-49.805,-60.059,-39.062,-43.457,0.000
1718226380.381,-54.199,-61.035,-41.016,-56.152,0.000
1718226380.385,-52.246,-62.500,-40.527,-43.945,0.000
1718226380.389,-59.570,-64.941,-42.969,-45.898,0.000
1718226380.393,-63.477,-67.383,-41.016,-50.293,0.000
1718226380.397,-62.500,-61.035,-40.527,-43.945,0.000
1718226380.401,-57.617,-50.781,-51.270,-48.828,0.000
1718226380.405,-58.594,-54.688,-58.594,-42.480,0.000
1718226380.409,-54.199,-46.875,-43.945,-40.039,0.000
1718226380.413,-56.641,-53.223,-50.293,-40.039,0.000
1718226380.416,-58.105,-63.477,-53.223,-36.621,0.000
1718226380.420,-32.227,-54.688,-38.574,-26.367,0.000
1718226380.424,-24.414,-48.828,-48.828,-19.043,0.000
1718226380.428,-36.621,-45.898,-46.875,-22.461,0.000
1718226380.432,-45.898,-51.758,-37.598,-27.832,0.000
1718226380.436,-54.199,-60.059,-47.363,-50.293,0.000
1718226380.440,-52.246,-60.059,-52.734,-50.781,0.000
1718226380.444,-20.996,-55.664,-49.316,-29.297,0.000
1718226380.448,-21.973,-47.852,-42.480,-18.555,0.000
1718226380.452,-41.504,-48.340,-39.551,-29.785,0.000
1718226380.455,-35.156,-51.758,-55.664,-38.086,0.000
1718226380.459,-37.109,-51.758,-66.406,-36.621,0.000
1718226380.463,-48.340,-50.293,-51.270,-46.875,0.000
1718226380.467,-46.387,-52.734,-48.828,-45.410,0.000
1718226380.471,-40.527,-46.875,-46.875,-24.414,0.000
1718226380.475,-40.527,-48.828,-57.617,-30.762,0.000
1718226380.479,-39.551,-55.176,-60.059,-41.504,0.000
1718226380.483,-41.504,-44.434,-38.574,-31.738,0.000
1718226380.487,-39.062,-50.781,-46.875,-31.250,0.000
1718226380.491,-37.598,-57.129,-49.805,-34.180,0.000
1718226380.495,-38.574,-49.805,-42.480,-40.039,0.000
1718226380.498,-45.410,-53.711,-42.969,-41.504,0.000
1718226380.502,-50.781,-58.105,-39.551,-28.320,0.000
1718226380.506,-41.504,-56.641,-36.133,-27.832,0.000
1718226380.510,-30.762,-56.152,-32.715,-32.227,0.000
1718226380.514,-37.598,-53.223,-38.086,-41.016,0.000
1718226380.518,-47.852,-56.641,-32.715,-51.270,0.000
1718226380.522,-42.480,-63.477,-43.457,-27.832,0.000
1718226380.526,-28.320,-55.664,-46.387,-19.531,0.000
1718226380.530,-27.832,-48.828,-42.480,-40.039,0.000
1718226380.534,-43.945,-49.805,-47.363,-47.363,0.000
1718226380.538,-57.129,-56.641,-41.992,-66.895,0.000
1718226380.541,-47.363,-56.641,-46.387,-61.523,0.000
1718226380.545,-32.227,-55.664,-49.316,-31.250,0.000
1718226380.549,-38.086,-58.594,-45.898,-35.645,0.000
1718226380.553,-42.969,-59.082,-42.969,-45.898,0.000
1718226380.557,-26.855,-56.641,-38.086,-35.156,0.000
1718226380.561,-17.578,-43.457,-43.945,-31.738,0.000
1718226380.565,-32.227,-41.504,-49.805,-38.574,0.000
1718226380.569,-54.688,-57.129,-54.688,-51.758,0.000
1718226380.573,-54.199,-53.223,-57.129,-50.781,0.000
1718226380.577,-50.781,-42.969,-46.875,-45.898,0.000
1718226380.580,-57.129,-51.758,-44.434,-47.852,0.000
1718226380.584,-47.363,-51.270,-46.875,-43.945,0.000
1718226380.588,-53.223,-48.340,-42.969,-49.805,0.000
1718226380.592,-53.223,-51.270,-41.504,-47.363,0.000
1718226380.596,-37.598,-51.270,-41.504,-49.316,0.000
1718226380.600,-40.039,-50.781,-41.504,-46.875,0.000
1718226380.604,-43.945,-43.457,-44.922,-34.668,0.000
1718226380.608,-49.805,-47.363,-48.828,-37.598,0.000
1718226380.612,-55.176,-53.711,-44.922,-44.434,0.000
1718226380.616,-46.387,-48.340,-49.316,-49.805,0.000
1718226380.620,-22.461,-37.109,-50.781,-33.203,0.000
1718226380.623,-21.973,-41.504,-48.340,-25.391,0.000
1718226380.627,-39.062,-52.734,-45.410,-40.527,0.000
1718226380.631,-41.992,-52.734,-44.922,-46.387,0.000
1718226380.635,-47.852,-49.316,-53.711,-36.133,0.000
1718226380.639,-55.176,-46.387,-43.945,-28.320,0.000
1718226380.643,-58.594,-48.828,-33.203,-43.945,0.000
1718226380.647,-53.711,-41.016,-34.180,-50.781,0.000
1718226380.651,-48.340,-39.062,-43.457,-38.574,0.000
1718226380.655,-50.293,-50.781,-43.945,-35.156,0.000
1718226380.659,-42.969,-50.781,-41.016,-29.297,0.000
1718226380.663,-37.598,-47.852,-41.016,-35.645,0.000
1718226380.666,-51.270,-50.293,-43.945,-48.828,0.000
1718226380.670,-63.477,-53.711,-40.527,-38.086,0.000
1718226380.674,-48.828,-53.223,-44.922,-30.273,0.000
1718226380.678,-38.574,-45.410,-61.035,-32.715,0.000
1718226380.682,-30.273,-43.457,-47.852,-23.438,0.000
1718226380.686,-29.785,-44.434,-37.109,-26.855,0.000
1718226380.690,-54.199,-43.457,-50.781,-42.480,0.000
1718226380.694,-63.965,-47.852,-47.363,-53.711,0.000
1718226380.698,-55.664,-52.734,-37.598,-47.852,0.000
1718226380.702,-36.621,-46.875,-41.016,-31.250,0.000
1718226380.706,-35.156,-41.504,-47.363,-29.297,0.000
1718226380.709,-50.293,-50.781,-55.176,-34.668,0.000
1718226380.713,-52.734,-53.223,-48.340,-18.555,0.000
1718226380.717,-46.387,-47.363,-40.039,-12.207,0.000
1718226380.721,-53.223,-42.969,-44.434,-42.969,0.000
1718226380.725,-55.176,-44.434,-50.293,-42.969,0.000
1718226380.729,-57.617,-48.828,-56.152,-37.109,0.000
1718226380.733,-69.824,-53.223,-53.223,-58.105,0.000
1718226380.737,-64.453,-50.293,-43.945,-55.176,0.000
1718226380.741,-60.059,-50.781,-45.898,-43.945,0.000
1718226380.745,-53.711,-49.316,-38.086,-39.062,0.000
1718226380.748,-48.828,-45.898,-39.551,-26.367,0.000
1718226380.752,-36.621,-35.156,-45.410,-25.391,0.000
1718226380.756,-41.504,-41.992,-45.898,-40.527,0.000
1718226380.760,-50.293,-50.781,-47.363,-43.457,0.000
1718226380.764,-43.945,-45.410,-41.504,-37.598,0.000
1718226380.768,-46.387,-42.969,-42.480,-27.344,0.000
1718226380.772,-45.410,-43.945,-49.316,-30.762,0.000
1718226380.776,-34.668,-43.457,-46.387,-39.551,0.000
1718226380.780,-42.480,-47.363,-42.480,-43.457,0.000
1718226380.784,-50.781,-57.129,-48.340,-47.363,0.000
1718226380.788,-31.250,-50.293,-59.570,-49.316,0.000
1718226380.791,-30.273,-41.504,-62.500,-51.270,0.000
1718226380.795,-37.109,-35.156,-44.922,-48.828,0.000
1718226380.799,-47.363,-46.387,-41.992,-65.918,0.000
1718226380.803,-56.641,-61.523,-46.387,-67.383,0.000
1718226380.807,-44.922,-52.734,-53.223,-57.129,0.000
1718226380.811,-24.414,-34.180,-52.246,-55.176,0.000
1718226380.815,-33.691,-40.527,-48.340,-63.965,0.000
1718226380.819,-52.734,-44.434,-61.523,-75.684,0.000
1718226380.823,-48.340,-43.945,-58.105,-66.895,0.000
1718226380.827,-34.668,-44.922,-41.992,-46.875,0.000
1718226380.831,-26.855,-40.039,-40.039,-42.969,0.000
1718226380.834,-34.180,-41.992,-47.363,-56.641,0.000
1718226380.838,-37.109,-41.504,-42.480,-46.387,0.000
1718226380.842,-35.156,-36.621,-25.391,-41.016,0.000
1718226380.846,-39.062,-41.016,-31.738,-55.664,0.000
1718226380.850,-34.668,-52.734,-44.434,-38.574,0.000
1718226380.854,-30.273,-53.711,-47.363,-40.039,0.000
1718226380.858,-34.180,-48.340,-41.504,-51.758,0.000
1718226380.862,-29.297,-46.387,-39.062,-39.062,0.000
1718226380.866,-29.785,-41.504,-39.062,-27.832,0.000
1718226380.870,-45.898,-47.363,-42.969,-35.156,0.000
1718226380.874,-41.504,-49.805,-35.156,-29.785,0.000
1718226380.877,-29.785,-53.711,-37.598,-27.832,0.000
1718226380.881,-27.832,-49.316,-49.805,-36.133,0.000
1718226380.885,-32.715,-35.645,-50.293,-31.250,0.000
1718226380.889,-29.297,-33.203,-45.410,-26.367,0.000
1718226380.893,-27.832,-43.945,-42.480,-22.949,0.000
1718226380.897,-28.320,-48.340,-47.363,-20.996,0.000
1718226380.901,-25.879,-36.133,-42.969,-33.691,0.000
1718226380.905,-35.156,-39.062,-43.457,-43.457,0.000
1718226380.909,-39.551,-47.852,-40.039,-33.691,0.000
1718226380.913,-28.809,-47.852,-35.645,-28.809,0.000
1718226380.916,-34.180,-46.387,-44.434,-38.086,0.000
1718226380.920,-33.691,-47.852,-48.828,-40.039,0.000
1718226380.924,-34.180,-48.828,-49.316,-33.203,0.000
1718226380.928,-41.992,-53.223,-46.387,-38.086,0.000
1718226380.932,-41.992,-53.711,-46.387,-34.668,0.000
1718226380.936,-45.410,-51.270,-43.457,-31.738,0.000
1718226380.940,-38.574,-48.828,-32.715,-27.344,0.000
1718226380.944,-46.387,-48.828,-41.016,-29.297,0.000
1718226380.948,-45.898,-44.434,-45.898,-42.969,0.000
1718226380.952,-35.645,-41.016,-43.457,-33.691,0.000
1718226380.956,-47.363,-53.223,-49.316,-34.668,0.000
1718226380.959,-44.434,-57.617,-35.156,-36.133,0.000
1718226380.963,-39.551,-49.805,-27.832,-26.367,0.000
1718226380.967,-35.156,-43.945,-35.645,-19.531,0.000
1718226380.971,-40.039,-51.270,-42.480,-18.066,0.000
1718226380.975,-46.387,-51.758,-43.945,-31.250,0.000
1718226380.979,-35.645,-50.781,-42.969,-29.297,0.000
1718226380.983,-25.391,-52.734,-53.711,-21.484,0.000
1718226380.987,-21.973,-57.129,-58.594,-26.367,0.000
1718226380.991,-17.090,-49.316,-44.922,-27.344,0.000
1718226380.995,-7.324,-39.062,-47.363,-4.395,0.000
1718226380.998,-8.301,-50.293,-49.805,7.812,0.000
1718226381.002,-14.648,-57.617,-41.504,-7.324,0.000
1718226381.006,-15.625,-56.641,-52.734,-24.902,0.000
1718226381.010,-15.625,-55.176,-53.711,-22.949,0.000
1718226381.014,-15.625,-48.340,-45.410,-26.855,0.000
1718226381.018,-18.555,-45.898,-50.293,-36.133,0.000
1718226381.022,-20.020,-48.340,-51.758,-38.574,0.000
1718226381.026,-18.066,-47.363,-49.805,-41.016,0.000
1718226381.030,-20.020,-45.898,-52.246,-33.691,0.000
1718226381.034,-27.832,-47.363,-51.758,-34.668,0.000
1718226381.038,-33.691,-45.898,-55.664,-32.227,0.000
1718226381.041,-27.832,-47.852,-57.129,-30.273,0.000
1718226381.045,-23.926,-53.711,-43.457,-7.812,0.000
1718226381.049,-13.184,-42.969,-29.785,-0.488,0.000
1718226381.053,-7.812,-35.645,-41.992,-28.809,0.000
1718226381.057,-19.531,-44.922,-50.781,-26.367,0.000
1718226381.061,-6.348,-44.922,-35.645,-10.742,0.000
1718226381.065,-5.859,-42.480,-27.832,-9.766,0.000
1718226381.069,-13.672,-40.039,-41.504,-13.184,0.000
1718226381.073,-4.395,-34.668,-55.664,-1.953,0.000
1718226381.077,-4.883,-43.945,-46.387,-2.441,0.000
1718226381.081,6.836,-41.016,-35.645,-6.348,0.000
1718226381.084,11.719,-35.156,-49.805,-0.977,0.000
1718226381.088,4.395,-39.062,-54.688,1.953,0.000
1718226381.092,0.000,-44.922,-46.875,10.254,0.000
1718226381.096,3.418,-41.016,-54.199,1.465,0.000
1718226381.100,4.395,-36.133,-53.711,-7.324,0.000
1718226381.104,6.348,-37.598,-44.434,6.348,0.000
1718226381.108,8.789,-38.086,-45.898,4.395,0.000
1718226381.112,10.742,-45.410,-57.617,-10.742,0.000
1718226381.116,15.625,-39.551,-53.223,4.883,0.000
1718226381.120,25.879,-25.391,-34.668,26.855,0.000
1718226381.124,25.391,-32.715,-33.691,19.531,0.000
1718226381.127,24.902,-39.062,-47.852,1.953,0.000
1718226381.131,14.648,-42.480,-53.223,-4.883,0.000
1718226381.135,-2.930,-44.434,-52.246,-4.395,0.000
1718226381.139,-13.184,-44.434,-51.270,-12.207,0.000
1718226381.143,-5.371,-41.992,-45.898,-21.484,0.000
1718226381.147,3.906,-38.086,-49.316,-14.160,0.000
1718226381.151,-4.395,-44.922,-61.523,-1.953,0.000
1718226381.155,-7.324,-47.363,-61.035,-14.648,0.000
1718226381.159,-5.859,-40.527,-50.293,-20.996,0.000
1718226381.163,-11.719,-42.480,-45.410,-7.812,0.000
1718226381.167,-18.066,-51.270,-42.969,-10.742,0.000
1718226381.170,-17.578,-53.711,-47.852,-15.625,0.000
1718226381.174,-9.277,-47.852,-43.457,-9.277,0.000
1718226381.178,-22.949,-51.270,-60.547,-6.836,0.000
1718226381.182,-35.156,-58.105,-73.730,-7.812,0.000
1718226381.186,-19.531,-60.059,-56.641,-16.602,0.000
1718226381.190,1.953,-53.711,-46.875,-2.930,0.000
1718226381.194,4.395,-49.316,-48.340,10.254,0.000
1718226381.198,-7.324,-53.223,-55.176,-10.742,0.000
1718226381.202,-17.090,-60.059,-57.129,-25.879,0.000
1718226381.206,-8.301,-54.688,-51.758,-14.160,0.000
1718226381.210,4.395,-52.734,-42.480,3.418,0.000
1718226381.213,-2.930,-51.758,-41.504,-4.395,0.000
1718226381.217,-16.113,-56.641,-50.781,-19.531,0.000
1718226381.221,-19.531,-60.059,-53.711,-15.625,0.000
1718226381.225,-15.137,-50.293,-43.457,-5.371,0.000
1718226381.229,-22.461,-54.199,-50.293,-19.531,0.000
1718226381.233,-23.438,-57.129,-66.406,-26.855,0.000
1718226381.237,-19.531,-58.105,-61.523,-17.090,0.000
1718226381.241,-22.461,-59.570,-49.316,-25.391,0.000
1718226381.245,-15.625,-53.711,-48.828,-25.391,0.000
1718226381.249,-23.438,-55.664,-53.711,-20.996,0.000
1718226381.252,-33.691,-63.477,-46.875,-24.414,0.000
1718226381.256,-22.949,-64.941,-41.504,-30.273,0.000
1718226381.260,-20.508,-63.477,-47.852,-26.855,0.000
1718226381.264,-29.297,-61.035,-52.246,-22.461,0.000
1718226381.268,-21.484,-57.129,-48.828,-19.531,0.000
1718226381.272,-12.207,-57.617,-42.480,-9.766,0.000
1718226381.276,-9.766,-53.223,-43.457,-15.137,0.000
1718226381.280,-13.184,-44.922,-40.039,-9.766,0.000
1718226381.284,-18.066,-49.805,-39.062,-4.395,0.000
1718226381.288,-14.160,-54.688,-43.945,-17.090,0.000
1718226381.292,-15.137,-55.176,-45.898,-27.344,0.000
1718226381.295,-23.438,-53.711,-38.086,-27.832,0.000
1718226381.299,-20.508,-50.293,-36.133,-20.996,0.000
1718226381.303,-25.879,-51.270,-45.410,-18.555,0.000
1718226381.307,-25.879,-51.758,-47.363,-37.598,0.000
1718226381.311,-9.766,-45.410,-44.434,-34.180,0.000
1718226381.315,-18.066,-47.852,-48.340,-15.137,0.000
1718226381.319,-29.785,-51.270,-57.129,-37.598,0.000
1718226381.323,-24.414,-54.199,-61.523,-47.852,0.000
1718226381.327,-18.555,-58.105,-43.945,-27.344,0.000
1718226381.331,-23.438,-51.270,-37.109,-18.066,0.000
1718226381.334,-36.133,-46.875,-47.852,-35.645,0.000
1718226381.338,-36.133,-45.410,-45.898,-47.363,0.000
1718226381.342,-32.715,-46.387,-37.109,-26.367,0.000
1718226381.346,-41.992,-50.293,-37.109,-16.113,0.000
1718226381.350,-41.016,-47.363,-43.457,-25.391,0.000
1718226381.354,-37.598,-43.945,-48.828,-37.598,0.000
1718226381.358,-18.066,-40.527,-43.945,-25.879,0.000
1718226381.362,-20.996,-42.480,-44.434,-15.625,0.000
1718226381.366,-33.691,-39.062,-45.898,-22.949,0.000
1718226381.370,-13.672,-33.691,-42.480,-18.555,0.000
1718226381.374,-13.672,-44.434,-40.527,-22.949,0.000
1718226381.377,-27.344,-46.875,-46.875,-27.344,0.000
1718226381.381,-29.297,-39.062,-44.922,-28.320,0.000
1718226381.385,-30.273,-41.016,-42.969,-26.367,0.000
1718226381.389,-42.969,-45.410,-51.758,-24.414,0.000
1718226381.393,-52.734,-48.828,-55.176,-40.527,0.000
1718226381.397,-40.527,-40.527,-41.016,-34.668,0.000
1718226381.401,-46.387,-38.574,-30.762,-23.926,0.000
1718226381.405,-60.547,-49.805,-43.457,-30.762,0.000
1718226381.409,-57.617,-47.852,-49.316,-40.039,0.000
1718226381.413,-47.852,-42.969,-46.387,-50.781,0.000
1718226381.417,-46.387,-39.062,-41.504,-40.527,0.000
1718226381.420,-59.082,-45.898,-20.508,-30.762,0.000
1718226381.424,-66.406,-58.594,-27.832,-46.387,0.000
1718226381.428,-69.336,-50.781,-46.387,-63.477,0.000
1718226381.432,-75.195,-47.363,-50.293,-73.242,0.000
1718226381.436,-68.359,-47.852,-48.828,-60.547,0.000
1718226381.440,-80.078,-52.246,-34.180,-69.824,0.000
1718226381.444,-90.820,-57.617,-36.133,-81.055,0.000
1718226381.448,-65.430,-53.711,-36.621,-62.988,0.000
1718226381.452,-51.758,-42.969,-45.898,-49.316,0.000
1718226381.456,-47.852,-41.504,-48.828,-43.457,0.000
1718226381.460,-53.711,-43.457,-43.945,-43.457,0.000
1718226381.463,-74.707,-48.828,-43.945,-59.570,0.000
1718226381.467,-66.895,-51.270,-37.598,-53.223,0.000
1718226381.471,-65.918,-44.434,-40.527,-56.152,0.000
1718226381.475,-78.125,-55.176,-44.922,-73.730,0.000
1718226381.479,-63.965,-61.523,-38.574,-52.246,0.000
1718226381.483,-51.758,-51.758,-41.992,-43.457,0.000
1718226381.487,-53.711,-47.363,-53.711,-57.617,0.000
1718226381.491,-42.480,-42.480,-40.527,-47.852,0.000
1718226381.495,-39.551,-38.086,-20.508,-39.062,0.000
1718226381.499,-43.457,-37.598,-26.367,-53.223,0.000
1718226381.502,-43.945,-38.086,-28.320,-62.012,0.000
1718226381.506,-34.180,-32.715,-19.531,-52.246,0.000
1718226381.510,-16.113,-32.715,-27.344,-37.598,0.000
1718226381.514,-26.367,-38.574,-38.574,-43.457,0.000
1718226381.518,-41.992,-46.387,-42.969,-59.570,0.000
1718226381.522,-43.945,-50.293,-33.691,-59.570,0.000
1718226381.526,-53.223,-45.410,-29.785,-62.988,0.000
1718226381.530,-45.410,-41.992,-22.949,-52.246,0.000
1718226381.534,-39.551,-42.480,-21.973,-52.246,0.000
1718226381.538,-49.316,-42.480,-27.832,-55.176,0.000
1718226381.542,-42.969,-43.457,-34.668,-58.105,0.000
1718226381.545,-29.785,-38.086,-35.645,-47.363,0.000
1718226381.549,-35.156,-39.551,-30.762,-40.039,0.000
1718226381.553,-50.293,-53.711,-25.879,-44.434,0.000
1718226381.557,-57.129,-56.641,-28.809,-41.992,0.000
1718226381.561,-55.664,-41.992,-35.645,-51.758,0.000
1718226381.565,-33.203,-34.180,-31.738,-41.992,0.000
1718226381.569,-33.203,-45.410,-42.480,-40.039,0.000
1718226381.573,-50.781,-48.828,-51.270,-55.176,0.000
1718226381.577,-41.504,-48.828,-39.551,-52.246,0.000
1718226381.581,-31.250,-47.363,-31.738,-45.898,0.000
1718226381.585,-43.945,-46.387,-45.410,-50.781,0.000
1718226381.588,-47.363,-47.852,-42.480,-38.086,0.000
1718226381.592,-33.203,-43.945,-29.785,-25.879,0.000
1718226381.596,-34.668,-43.457,-38.086,-36.133,0.000
1718226381.600,-38.574,-44.922,-43.945,-23.438,0.000
1718226381.604,-46.387,-50.293,-50.781,-39.062,0.000
1718226381.608,-51.758,-47.852,-39.062,-60.059,0.000
1718226381.612,-47.852,-42.969,-30.762,-41.992,0.000
1718226381.616,-46.387,-41.504,-41.504,-40.527,0.000
1718226381.620,-46.875,-39.062,-39.062,-48.828,0.000
1718226381.624,-34.668,-34.668,-29.785,-49.805,0.000
1718226381.628,-33.203,-44.434,-42.480,-46.875,0.000
1718226381.631,-41.016,-53.223,-54.688,-51.758,0.000
1718226381.635,-48.828,-49.316,-43.457,-50.293,0.000
1718226381.639,-36.133,-43.945,-26.367,-28.809,0.000
1718226381.643,-37.598,-44.922,-26.855,-29.785,0.000
1718226381.647,-52.246,-48.340,-35.156,-46.875,0.000
1718226381.651,-44.922,-53.223,-39.551,-45.410,0.000
1718226381.655,-43.945,-57.129,-40.039,-42.969,0.000
1718226381.659,-48.340,-56.641,-47.363,-29.297,0.000
1718226381.663,-52.734,-57.129,-46.387,-26.367,0.000
1718226381.667,-48.340,-56.152,-38.086,-53.223,0.000
1718226381.670,-42.969,-53.711,-45.898,-48.340,0.000
1718226381.674,-42.969,-56.152,-48.340,-47.363,0.000
1718226381.678,-41.504,-55.176,-42.969,-48.340,0.000
1718226381.682,-33.691,-51.758,-47.363,-40.527,0.000
1718226381.686,-28.809,-53.223,-44.434,-38.574,0.000
1718226381.690,-31.738,-51.758,-38.086,-22.949,0.000
1718226381.694,-34.180,-50.781,-47.363,-24.902,0.000
1718226381.698,-26.855,-52.246,-52.734,-42.969,0.000
1718226381.702,-27.344,-47.852,-39.551,-30.273,0.000
1718226381.706,-28.809,-52.246,-37.598,-31.250,0.000
1718226381.710,-24.414,-58.594,-46.875,-47.852,0.000
1718226381.713,-22.949,-46.387,-43.945,-33.691,0.000
1718226381.717,-24.902,-44.434,-34.668,-17.578,0.000
1718226381.721,-32.227,-43.945,-37.598,-29.297,0.000
1718226381.725,-28.809,-38.574,-33.203,-39.551,0.000
1718226381.729,-26.855,-30.273,-25.391,-35.645,0.000
1718226381.733,-27.832,-28.320,-32.227,-25.879,0.000
1718226381.737,-28.809,-35.156,-44.434,-36.133,0.000
1718226381.741,-37.109,-39.551,-49.316,-50.293,0.000
1718226381.745,-39.551,-46.387,-53.711,-45.898,0.000
1718226381.749,-23.926,-33.203,-44.434,-23.926,0.000
1718226381.752,-31.250,-29.785,-30.273,-25.391,0.000
1718226381.756,-62.500,-46.875,-48.828,-62.988,0.000
1718226381.760,-60.059,-44.434,-47.852,-54.199,0.000
1718226381.764,-61.523,-46.387,-41.016,-49.805,0.000
1718226381.768,-69.824,-54.199,-41.016,-62.500,0.000
1718226381.772,-49.805,-54.688,-35.156,-53.223,0.000
1718226381.776,-41.504,-51.758,-42.969,-48.340,0.000
1718226381.780,-53.711,-51.270,-50.293,-47.363,0.000
1718226381.784,-54.199,-54.688,-49.316,-47.852,0.000
1718226381.788,-40.039,-51.758,-45.410,-31.738,0.000
1718226381.792,-34.668,-46.387,-44.922,-36.133,0.000
1718226381.795,-33.691,-43.457,-52.734,-53.223,0.000
1718226381.799,-29.785,-35.156,-56.641,-53.223,0.000
1718226381.803,-26.367,-31.738,-52.246,-57.617,0.000
1718226381.807,-27.344,-41.504,-38.574,-53.711,0.000
1718226381.811,-35.645,-43.457,-34.668,-51.758,0.000
1718226381.815,-52.734,-50.293,-51.270,-64.453,0.000
1718226381.819,-51.270,-46.387,-42.969,-49.316,0.000
1718226381.823,-49.805,-41.504,-33.691,-45.410,0.000
1718226381.827,-53.223,-55.664,-46.875,-49.805,0.000
1718226381.831,-60.547,-67.383,-50.293,-59.082,0.000
1718226381.835,-67.383,-62.988,-41.992,-67.871,0.000
1718226381.838,-61.035,-56.152,-47.852,-54.199,0.000
1718226381.842,-51.270,-54.199,-56.152,-46.875,0.000
1718226381.846,-54.199,-47.363,-48.828,-56.152,0.000
1718226381.850,-54.199,-50.781,-45.410,-52.734,0.000
1718226381.854,-44.922,-55.664,-38.086,-42.969,0.000
1718226381.858,-52.246,-55.176,-39.062,-38.574,0.000
1718226381.862,-41.504,-51.758,-33.203,-20.996,0.000
1718226381.866,-36.621,-54.199,-36.133,-23.438,0.000
1718226381.870,-46.387,-60.547,-50.293,-44.434,0.000
1718226381.874,-42.969,-60.547,-54.688,-60.547,0.000
1718226381.878,-37.598,-57.129,-54.688,-46.387,0.000
1718226381.881,-42.480,-55.176,-45.410,-45.410,0.000
1718226381.885,-40.039,-61.035,-39.062,-41.992,0.000
1718226381.889,-37.598,-60.547,-49.805,-39.062,0.000
1718226381.893,-32.227,-51.270,-52.734,-43.945,0.000
1718226381.897,-31.738,-53.711,-41.016,-39.062,0.000
1718226381.901,-57.129,-57.617,-43.457,-55.176,0.000
1718226381.905,-50.293,-52.734,-37.598,-46.875,0.000
1718226381.909,-32.227,-49.805,-24.414,-34.180,0.000
1718226381.913,-35.645,-52.246,-43.945,-39.551,0.000
1718226381.917,-22.461,-43.457,-53.711,-43.457,0.000
1718226381.920,-27.832,-40.039,-36.621,-47.852,0.000
1718226381.924,-48.828,-48.340,-41.992,-48.340,0.000
1718226381.928,-48.828,-56.152,-47.852,-45.410,0.000
1718226381.932,-60.059,-61.035,-37.598,-41.504,0.000
1718226381.936,-61.035,-57.617,-43.945,-36.621,0.000
1718226381.940,-48.828,-51.270,-63.965,-24.414,0.000
1718226381.944,-58.105,-48.828,-68.359,-39.062,0.000
1718226381.948,-70.312,-62.988,-34.180,-54.199,0.000
1718226381.952,-53.223,-60.059,-24.902,-42.969,0.000
1718226381.956,-43.457,-56.152,-51.270,-41.992,0.000
1718226381.960,-33.203,-62.012,-57.129,-32.227,0.000
1718226381.963,-31.250,-65.918,-46.875,-31.738,0.000
1718226381.967,-38.086,-64.941,-43.457,-43.457,0.000
1718226381.971,-41.992,-65.918,-46.875,-37.598,0.000
1718226381.975,-45.898,-71.777,-46.387,-22.461,0.000
1718226381.979,-48.340,-71.289,-39.062,-26.855,0.000
1718226381.983,-49.316,-70.312,-46.875,-41.016,0.000
1718226381.987,-45.410,-73.730,-45.410,-29.297,0.000
1718226381.991,-44.434,-81.543,-32.715,-18.066,0.000
1718226381.995,-28.320,-82.520,-36.621,-7.812,0.000
1718226381.999,-29.297,-73.242,-50.781,-8.789,0.000
1718226382.003,-33.691,-68.848,-63.965,-10.254,0.000
1718226382.006,-19.531,-67.871,-56.641,1.465,0.000
1718226382.010,-18.066,-69.336,-49.316,-9.766,0.000
1718226382.014,-7.812,-61.523,-60.547,-1.465,0.000
1718226382.018,13.184,-41.992,-63.477,27.344,0.000
1718226382.022,24.414,-38.574,-51.270,34.668,0.000
1718226382.026,33.203,-30.273,-44.922,41.016,0.000
1718226382.030,30.273,-20.508,-49.805,37.598,0.000
1718226382.034,42.480,-27.832,-52.246,53.711,0.000
1718226382.038,58.105,-20.020,-65.918,80.566,0.000
1718226382.042,62.012,-5.371,-63.965,60.059,0.000
1718226382.046,81.543,0.977,-44.922,61.035,0.000
1718226382.049,100.098,4.883,-52.246,83.008,0.000
1718226382.053,111.816,11.719,-55.176,83.008,0.000
1718226382.057,121.094,21.484,-64.941,98.145,0.000
1718226382.061,134.766,23.438,-72.754,122.559,0.000
1718226382.065,150.879,22.461,-68.848,132.324,0.000
1718226382.069,160.645,32.715,-62.988,150.391,0.000
1718226382.073,163.086,40.527,-77.148,145.996,0.000
1718226382.077,174.805,35.645,-89.844,149.414,0.000
1718226382.081,186.523,39.062,-91.309,169.922,0.000
1718226382.085,197.266,43.457,-81.543,177.734,0.000
1718226382.088,198.242,44.922,-78.613,189.453,0.000
1718226382.092,185.059,38.086,-92.285,178.711,0.000
1718226382.096,187.988,28.809,-93.750,187.500,0.000
1718226382.100,188.965,32.715,-100.098,184.570,0.000
1718226382.104,189.941,35.645,-95.215,176.758,0.000
1718226382.108,196.289,26.855,-82.520,190.430,0.000
1718226382.112,181.152,16.113,-93.750,180.176,0.000
1718226382.116,172.852,18.555,-103.516,171.875,0.000
1718226382.120,174.805,17.578,-99.609,173.340,0.000
1718226382.124,176.270,15.625,-88.867,177.246,0.000
1718226382.128,182.617,18.555,-76.660,173.340,0.000
1718226382.131,180.664,16.113,-85.938,152.832,0.000
1718226382.135,161.621,10.742,-96.680,147.949,0.000
1718226382.139,154.297,20.996,-79.102,166.016,0.000
1718226382.143,133.789,15.625,-67.383,161.133,0.000
1718226382.147,112.305,-5.859,-76.172,131.836,0.000
1718226382.151,96.191,-5.859,-91.309,119.141,0.000
1718226382.155,77.637,-6.836,-81.543,112.793,0.000
1718226382.159,79.590,-8.301,-69.824,98.633,0.000
1718226382.163,87.891,-6.836,-74.707,91.797,0.000
1718226382.167,79.102,-14.648,-61.035,88.379,0.000
1718226382.170,66.895,-15.625,-54.688,88.867,0.000
1718226382.174,75.195,-11.719,-63.477,78.125,0.000
1718226382.178,78.125,-8.301,-67.871,72.754,0.000
1718226382.182,71.777,-1.465,-66.895,75.684,0.000
1718226382.186,77.637,-2.441,-56.152,78.613,0.000
1718226382.190,65.918,-3.418,-53.223,75.684,0.000
1718226382.194,65.430,-1.465,-42.480,74.707,0.000
1718226382.198,70.801,-9.766,-45.410,62.500,0.000
1718226382.202,62.012,-14.648,-65.430,53.223,0.000
1718226382.206,56.152,-8.789,-59.570,48.828,0.000
1718226382.210,42.480,-9.277,-54.199,39.551,0.000
1718226382.213,46.387,-6.348,-47.852,64.453,0.000
1718226382.217,51.270,-4.883,-46.387,60.547,0.000
1718226382.221,33.203,-11.230,-50.293,32.715,0.000
1718226382.225,31.250,-12.207,-47.852,30.762,0.000
1718226382.229,34.180,-13.672,-49.316,28.809,0.000
1718226382.233,34.668,-7.324,-38.086,29.785,0.000
1718226382.237,26.367,-11.230,-30.762,31.738,0.000
1718226382.241,18.066,-16.113,-31.738,31.250,0.000
1718226382.245,9.766,-16.113,-41.016,40.527,0.000
1718226382.249,4.395,-25.391,-46.875,43.945,0.000
1718226382.253,-0.977,-30.762,-49.805,18.555,0.000
1718226382.256,-0.488,-28.320,-52.734,2.930,0.000
1718226382.260,11.230,-26.367,-39.551,10.254,0.000
1718226382.264,8.789,-30.273,-48.340,0.488,0.000
1718226382.268,14.648,-32.715,-60.059,6.836,0.000
1718226382.272,16.602,-30.273,-48.828,22.949,0.000
1718226382.276,10.742,-26.367,-39.551,-0.977,0.000
1718226382.280,14.648,-32.227,-54.199,-5.371,0.000
1718226382.284,-1.465,-41.016,-57.129,-7.812,0.000
1718226382.288,-2.441,-41.504,-46.875,-13.184,0.000
1718226382.292,12.207,-41.504,-49.805,-5.371,0.000
1718226382.296,9.766,-37.598,-47.852,1.465,0.000
1718226382.299,1.465,-44.922,-60.547,0.488,0.000
1718226382.303,-8.301,-51.758,-54.688,-6.836,0.000
1718226382.307,-17.090,-53.711,-29.785,-12.207,0.000
1718226382.311,-15.137,-51.270,-35.645,-14.648,0.000
1718226382.315,-7.812,-42.480,-32.227,-5.371,0.000
1718226382.319,-10.254,-44.922,-27.344,-6.348,0.000
1718226382.323,-18.555,-48.340,-34.668,-14.160,0.000
1718226382.327,-18.066,-51.270,-53.223,-16.113,0.000
1718226382.331,-15.137,-54.688,-64.453,-7.812,0.000
1718226382.335,-25.391,-56.152,-46.387,1.465,0.000
1718226382.338,-25.879,-52.246,-30.273,-6.836,0.000
1718226382.342,-14.160,-50.293,-27.344,-14.160,0.000
1718226382.346,-28.809,-53.711,-32.227,-15.137,0.000
1718226382.350,-38.086,-51.758,-32.227,-3.906,0.000
1718226382.354,-28.809,-46.387,-28.809,-2.930,0.000
1718226382.358,-27.344,-44.922,-39.551,-17.578,0.000
1718226382.362,-28.809,-45.898,-47.852,-19.043,0.000
1718226382.366,-22.461,-47.363,-41.016,-5.859,0.000
1718226382.370,-26.367,-42.969,-38.574,-0.977,0.000
1718226382.374,-20.020,-30.762,-33.691,-5.371,0.000
1718226382.378,-5.859,-34.180,-29.297,-12.695,0.000
1718226382.381,-18.066,-46.387,-39.062,-19.043,0.000
1718226382.385,-28.320,-45.898,-45.898,-20.508,0.000
1718226382.389,-18.555,-44.922,-47.852,-34.180,0.000
1718226382.393,-9.766,-41.992,-40.527,-25.879,0.000
1718226382.397,-14.648,-41.016,-41.992,-20.020,0.000
1718226382.401,-24.902,-43.457,-56.641,-41.504,0.000
1718226382.405,-22.949,-45.410,-54.688,-34.668,0.000
1718226382.409,-19.043,-44.922,-47.363,-19.531,0.000
1718226382.413,-33.203,-48.828,-43.945,-21.484,0.000
1718226382.417,-31.738,-48.828,-29.785,-31.250,0.000
1718226382.421,-25.391,-52.246,-33.203,-42.969,0.000
1718226382.424,-38.086,-62.500,-48.828,-48.828,0.000
1718226382.428,-44.434,-54.688,-41.016,-51.270,0.000
1718226382.432,-34.180,-44.922,-39.062,-41.504,0.000
1718226382.436,-33.691,-42.480,-40.039,-31.250,0.000
1718226382.440,-46.875,-42.969,-41.992,-21.973,0.000
1718226382.444,-44.922,-45.410,-48.340,-27.344,0.000
1718226382.448,-34.668,-42.969,-35.156,-34.180,0.000
1718226382.452,-37.598,-43.457,-29.785,-34.668,0.000
1718226382.456,-37.598,-44.434,-25.391,-33.691,0.000
1718226382.460,-42.969,-44.434,-38.574,-35.156,0.000
1718226382.463,-47.852,-49.316,-50.781,-43.945,0.000
1718226382.467,-47.363,-49.316,-39.062,-28.809,0.000
1718226382.471,-52.734,-44.922,-34.668,-32.715,0.000
1718226382.475,-41.504,-35.645,-27.344,-24.414,0.000
1718226382.479,-26.367,-34.180,-27.832,-5.859,0.000
1718226382.483,-28.809,-45.898,-30.762,-21.973,0.000
1718226382.487,-35.645,-48.340,-38.086,-23.438,0.000
1718226382.491,-42.480,-41.992,-48.340,-20.508,0.000
1718226382.495,-42.480,-38.574,-35.156,-24.414,0.000
1718226382.499,-36.621,-41.016,-26.855,-28.809,0.000
1718226382.503,-35.645,-42.480,-41.504,-39.551,0.000
1718226382.506,-39.062,-47.852,-41.016,-44.434,0.000
1718226382.510,-42.480,-51.270,-33.691,-37.598,0.000
1718226382.514,-38.086,-41.504,-26.367,-35.645,0.000
1718226382.518,-38.086,-43.457,-39.062,-30.762,0.000
1718226382.522,-42.480,-45.898,-55.664,-26.367,0.000
1718226382.526,-33.203,-36.133,-44.922,-31.738,0.000
1718226382.530,-22.949,-29.785,-35.645,-26.855,0.000
1718226382.534,-36.133,-34.668,-35.645,-22.461,0.000
1718226382.538,-51.270,-46.387,-49.316,-28.320,0.000
1718226382.542,-52.246,-45.898,-51.270,-37.109,0.000
1718226382.546,-52.734,-47.363,-37.598,-51.758,0.000
1718226382.549,-47.852,-54.199,-36.621,-57.617,0.000
1718226382.553,-46.387,-51.758,-39.551,-50.293,0.000
1718226382.557,-54.199,-54.688,-40.527,-38.086,0.000
1718226382.561,-53.711,-58.594,-38.574,-41.016,0.000
1718226382.565,-57.617,-51.270,-42.969,-46.387,0.000
1718226382.569,-38.574,-41.992,-36.621,-31.738,0.000
1718226382.573,-35.645,-44.922,-42.969,-30.762,0.000
1718226382.577,-42.969,-47.852,-47.363,-28.320,0.000
1718226382.581,-28.809,-49.805,-37.109,-26.367,0.000
1718226382.585,-31.738,-52.246,-38.574,-36.133,0.000
1718226382.588,-40.527,-51.270,-39.062,-34.668,0.000
1718226382.592,-46.387,-40.527,-39.551,-23.926,0.000
1718226382.596,-42.969,-43.457,-38.086,-33.203,0.000
1718226382.600,-49.805,-55.664,-41.992,-57.129,0.000
1718226382.604,-59.570,-54.688,-53.711,-54.688,0.000
1718226382.608,-47.363,-49.805,-41.992,-28.320,0.000
1718226382.612,-32.227,-36.133,-27.832,-11.230,0.000
1718226382.616,-28.320,-31.250,-30.762,-33.203,0.000
1718226382.620,-33.203,-39.551,-37.109,-33.691,0.000
1718226382.624,-36.133,-45.410,-72.754,-22.949,0.000
1718226382.628,-35.645,-47.363,-66.406,-42.969,0.000
1718226382.631,-34.668,-39.551,-26.855,-46.387,0.000
1718226382.635,-28.320,-34.668,-23.438,-10.254,0.000
1718226382.639,-34.180,-41.992,-38.086,-14.648,0.000
1718226382.643,-36.133,-42.969,-37.109,-42.480,0.000
1718226382.647,-17.578,-42.969,-29.785,-38.574,0.000
1718226382.651,-29.297,-54.199,-37.109,-36.133,0.000
1718226382.655,-52.246,-55.664,-40.527,-27.832,0.000
1718226382.659,-47.363,-48.340,-42.969,-32.227,0.000
1718226382.663,-44.922,-48.828,-46.387,-43.945,0.000
1718226382.667,-37.598,-49.316,-42.969,-44.434,0.000
1718226382.671,-41.016,-45.898,-38.086,-27.344,0.000
1718226382.674,-52.734,-48.340,-49.805,-16.602,0.000
1718226382.678,-40.527,-53.223,-44.434,-22.461,0.000
1718226382.682,-35.156,-48.340,-34.180,-15.625,0.000
1718226382.686,-41.992,-42.480,-32.227,-34.180,0.000
1718226382.690,-50.293,-45.898,-27.832,-46.875,0.000
1718226382.694,-60.059,-54.199,-37.598,-60.059,0.000
1718226382.698,-66.895,-54.688,-43.457,-56.641,0.000
1718226382.702,-56.641,-42.480,-37.598,-42.480,0.000
1718226382.706,-53.223,-35.645,-24.414,-38.086,0.000
1718226382.710,-65.918,-41.016,-38.574,-40.527,0.000
1718226382.714,-60.059,-50.781,-49.316,-43.457,0.000
1718226382.717,-53.223,-54.199,-35.156,-38.086,0.000
1718226382.721,-56.152,-53.223,-41.016,-29.785,0.000
1718226382.725,-39.062,-48.828,-45.898,-20.020,0.000
1718226382.729,-29.785,-42.480,-38.086,-38.574,0.000
1718226382.733,-37.109,-45.898,-28.809,-50.293,0.000
1718226382.737,-49.805,-50.781,-30.762,-38.086,0.000
1718226382.741,-47.363,-53.711,-34.180,-38.574,0.000
1718226382.745,-37.109,-58.105,-37.598,-41.504,0.000
1718226382.749,-25.391,-56.641,-39.551,-31.250,0.000
1718226382.753,-19.043,-47.852,-35.645,-27.344,0.000
1718226382.756,-38.086,-41.016,-34.668,-41.992,0.000
1718226382.760,-31.250,-37.109,-37.598,-28.320,0.000
1718226382.764,-34.668,-41.016,-48.340,-22.949,0.000
1718226382.768,-30.273,-43.457,-45.898,-30.273,0.000
1718226382.772,-26.855,-47.852,-42.969,-41.992,0.000
1718226382.776,-31.738,-44.434,-40.039,-43.457,0.000
1718226382.780,-25.879,-38.574,-30.762,-34.180,0.000
1718226382.784,-32.227,-39.551,-37.598,-36.621,0.000
1718226382.788,-24.414,-39.551,-45.898,-33.203,0.000
1718226382.792,-25.391,-37.598,-47.363,-33.203,0.000
1718226382.796,-30.762,-35.645,-39.551,-31.738,0.000
1718226382.799,-38.086,-36.133,-37.598,-28.320,0.000
1718226382.803,-41.504,-42.480,-43.457,-26.855,0.000
1718226382.807,-39.551,-43.457,-46.875,-28.809,0.000
1718226382.811,-31.250,-38.574,-41.992,-31.738,0.000
1718226382.815,-27.344,-39.551,-36.133,-38.086,0.000
1718226382.819,-37.109,-39.062,-39.062,-45.410,0.000
1718226382.823,-46.387,-43.457,-43.945,-35.156,0.000
1718226382.827,-41.504,-41.504,-47.363,-30.273,0.000
1718226382.831,-38.086,-38.574,-54.199,-37.109,0.000
1718226382.835,-39.551,-43.945,-57.617,-42.969,0.000
1718226382.839,-47.363,-45.898,-49.316,-33.203,0.000
1718226382.842,-35.645,-39.551,-42.969,-31.250,0.000
1718226382.846,-24.902,-35.645,-47.363,-38.574,0.000
1718226382.850,-42.480,-40.039,-51.270,-25.879,0.000
1718226382.854,-47.363,-41.016,-46.387,-32.227,0.000
1718226382.858,-37.598,-40.039,-47.363,-39.551,0.000
1718226382.862,-42.969,-37.598,-48.340,-29.297,0.000
1718226382.866,-39.551,-34.180,-43.457,-36.621,0.000
1718226382.870,-51.758,-41.504,-49.805,-49.316,0.000
1718226382.874,-54.688,-43.457,-40.527,-30.762,0.000
1718226382.878,-48.340,-44.434,-35.156,-24.902,0.000
1718226382.881,-60.547,-43.457,-46.387,-47.852,0.000
1718226382.885,-53.223,-41.504,-61.035,-43.457,0.000
1718226382.889,-49.805,-45.898,-65.918,-39.062,0.000
1718226382.893,-51.758,-46.387,-58.105,-44.922,0.000
1718226382.897,-45.898,-43.945,-55.664,-44.922,0.000
1718226382.901,-42.969,-43.457,-51.758,-34.180,0.000
1718226382.905,-41.504,-43.945,-48.340,-21.973,0.000
1718226382.909,-44.922,-46.387,-52.734,-30.762,0.000
1718226382.913,-48.828,-46.387,-52.734,-27.832,0.000
1718226382.917,-46.875,-52.734,-48.340,-38.574,0.000
1718226382.921,-39.551,-50.293,-44.434,-45.410,0.000
1718226382.924,-32.715,-43.945,-44.434,-38.086,0.000
1718226382.928,-37.109,-55.664,-66.895,-55.664,0.000
1718226382.932,-45.410,-57.129,-75.684,-49.805,0.000
1718226382.936,-47.852,-55.664,-56.641,-35.645,0.000
1718226382.940,-51.270,-57.129,-49.805,-42.969,0.000
1718226382.944,-45.898,-58.105,-59.570,-57.617,0.000
1718226382.948,-47.852,-55.664,-63.965,-54.199,0.000
1718226382.952,-64.453,-54.688,-55.664,-39.062,0.000
1718226382.956,-56.152,-51.758,-51.270,-32.715,0.000
1718226382.960,-51.270,-50.781,-57.129,-42.969,0.000
1718226382.963,-41.992,-52.734,-53.711,-41.016,0.000
1718226382.967,-32.227,-42.480,-55.664,-18.555,0.000
1718226382.971,-46.387,-41.504,-59.570,-30.762,0.000
1718226382.975,-53.223,-45.410,-53.223,-46.875,0.000
1718226382.979,-34.180,-39.551,-41.504,-40.039,0.000
1718226382.983,-34.668,-34.668,-38.574,-42.480,0.000
1718226382.987,-39.062,-29.785,-41.992,-46.875,0.000
1718226382.991,-34.668,-35.645,-53.223,-42.480,0.000
1718226382.995,-21.484,-34.180,-48.340,-24.902,0.000
1718226382.999,-18.555,-30.762,-27.832,-17.578,0.000
1718226383.003,-43.945,-39.062,-34.668,-43.457,0.000
1718226383.006,-54.199,-46.387,-44.922,-46.875,0.000
1718226383.010,-47.363,-53.711,-51.758,-29.297,0.000
1718226383.014,-29.785,-61.523,-43.945,-27.344,0.000
1718226383.018,-41.504,-73.730,-44.922,-46.875,0.000
1718226383.022,-49.805,-71.289,-46.387,-34.180,0.000
1718226383.026,-38.086,-64.941,-38.086,-34.668,0.000
1718226383.030,-43.457,-61.035,-39.551,-45.410,0.000
1718226383.034,-34.668,-52.734,-28.809,-28.320,0.000
1718226383.038,-28.320,-53.223,-23.438,-31.250,0.000
1718226383.042,-27.832,-51.270,-28.320,-24.902,0.000
1718226383.046,-29.785,-54.199,-34.180,-20.508,0.000
1718226383.049,-31.738,-55.664,-40.039,-34.668,0.000
1718226383.053,-31.250,-51.270,-34.180,-10.742,0.000
1718226383.057,-51.270,-60.059,-33.691,-8.789,0.000
1718226383.061,-62.012,-64.453,-33.691,-45.898,0.000
1718226383.065,-60.547,-53.711,-47.852,-32.715,0.000
1718226383.069,-51.270,-54.199,-55.176,-34.180,0.000
1718226383.073,-54.199,-59.082,-39.062,-48.828,0.000
1718226383.077,-64.453,-55.176,-37.598,-32.715,0.000
1718226383.081,-48.828,-53.223,-41.992,-23.926,0.000
1718226383.085,-48.340,-52.734,-46.387,-20.996,0.000
1718226383.089,-36.621,-47.363,-46.387,-12.695,0.000
1718226383.092,-32.715,-50.293,-42.969,-3.906,0.000
1718226383.096,-48.828,-48.340,-44.434,-14.160,0.000
1718226383.100,-50.293,-55.176,-50.781,-2.930,0.000
1718226383.104,-56.152,-66.895,-52.734,-8.301,0.000
1718226383.108,-54.199,-61.523,-46.387,-31.250,0.000
1718226383.112,-41.504,-63.477,-45.898,-31.250,0.000
1718226383.116,-38.574,-58.105,-51.270,-33.691,0.000
1718226383.120,-40.039,-53.711,-48.828,-41.016,0.000
1718226383.124,-41.992,-56.641,-43.457,-32.715,0.000
1718226383.128,-42.480,-55.176,-36.621,-24.414,0.000
1718226383.131,-34.180,-55.664,-36.621,-29.297,0.000
1718226383.135,-45.410,-63.965,-45.410,-37.109,0.000
1718226383.139,-50.293,-67.871,-44.434,-27.832,0.000
1718226383.143,-34.180,-62.012,-44.922,-22.461,0.000
1718226383.147,-40.039,-59.082,-49.316,-37.598,0.000
1718226383.151,-39.062,-60.059,-47.852,-38.086,0.000
1718226383.155,-32.715,-56.152,-46.387,-26.855,0.000
1718226383.159,-36.621,-54.688,-43.945,-29.297,0.000
1718226383.163,-43.457,-60.547,-52.246,-49.316,0.000
1718226383.167,-44.434,-62.988,-60.547,-59.082,0.000
1718226383.171,-25.391,-52.734,-40.039,-46.387,0.000
1718226383.174,-42.480,-54.199,-34.180,-23.438,0.000
1718226383.178,-48.340,-58.105,-42.480,-29.785,0.000
1718226383.182,-32.227,-48.340,-33.203,-43.457,0.000
1718226383.186,-43.457,-57.129,-43.945,-43.457,0.000
1718226383.190,-50.781,-69.336,-52.246,-31.738,0.000
1718226383.194,-35.156,-57.617,-39.062,-21.484,0.000
1718226383.198,-30.762,-47.852,-35.156,-30.762,0.000
1718226383.202,-33.691,-57.129,-38.086,-32.227,0.000
1718226383.206,-41.016,-62.988,-43.945,-26.367,0.000
1718226383.210,-53.223,-60.059,-50.781,-16.113,0.000
1718226383.214,-30.273,-57.129,-45.898,-30.273,0.000
1718226383.217,-24.414,-53.223,-41.992,-29.785,0.000
1718226383.221,-37.109,-55.664,-44.922,-27.832,0.000
1718226383.225,-38.574,-54.199,-49.316,-50.293,0.000
1718226383.229,-30.762,-51.758,-46.387,-55.664,0.000
1718226383.233,-34.180,-57.129,-37.598,-36.133,0.000
1718226383.237,-50.781,-58.594,-41.016,-26.855,0.000
1718226383.241,-51.758,-57.617,-49.805,-47.852,0.000
1718226383.245,-33.203,-50.293,-39.551,-49.316,0.000
1718226383.249,-33.691,-43.457,-39.551,-33.203,0.000
1718226383.253,-47.363,-51.270,-56.641,-33.691,0.000
1718226383.256,-37.109,-46.875,-53.223,-42.969,0.000
1718226383.260,-39.062,-48.828,-47.363,-43.945,0.000
1718226383.264,-41.992,-54.688,-40.527,-32.715,0.000
1718226383.268,-30.762,-51.758,-32.715,-24.902,0.000
1718226383.272,-40.039,-49.316,-36.133,-33.691,0.000
1718226383.276,-54.199,-55.664,-41.992,-42.969,0.000
1718226383.280,-45.410,-59.082,-43.457,-37.598,0.000
1718226383.284,-46.387,-53.711,-42.969,-39.062,0.000
1718226383.288,-47.852,-50.781,-41.504,-48.340,0.000
1718226383.292,-38.574,-47.852,-41.992,-36.133,0.000
1718226383.296,-40.527,-57.129,-51.270,-38.574,0.000
1718226383.299,-41.992,-64.453,-55.664,-54.199,0.000
1718226383.303,-44.922,-58.594,-45.898,-46.875,0.000
1718226383.307,-50.781,-58.594,-42.480,-48.828,0.000
1718226383.311,-53.223,-63.965,-47.363,-47.363,0.000
1718226383.315,-51.758,-62.500,-53.711,-41.016,0.000
1718226383.319,-46.875,-57.617,-54.688,-42.969,0.000
1718226383.323,-46.387,-50.293,-46.875,-53.223,0.000
1718226383.327,-38.086,-44.434,-33.691,-41.504,0.000
1718226383.331,-30.273,-41.504,-39.551,-28.320,0.000
1718226383.335,-39.062,-48.340,-57.129,-39.062,0.000
1718226383.339,-40.527,-56.641,-53.711,-36.133,0.000
1718226383.342,-41.992,-54.199,-40.039,-16.602,0.000
1718226383.346,-40.039,-41.016,-34.180,-27.832,0.000
1718226383.350,-37.109,-43.945,-41.504,-45.410,0.000
1718226383.354,-48.828,-53.711,-52.734,-44.434,0.000
1718226383.358,-47.363,-51.758,-43.457,-54.199,0.000
1718226383.362,-31.738,-52.734,-33.203,-41.016,0.000
1718226383.366,-29.297,-46.387,-44.922,-33.203,0.000
1718226383.370,-49.316,-36.621,-54.688,-52.246,0.000
1718226383.374,-54.688,-40.039,-53.711,-52.734,0.000
1718226383.378,-40.039,-43.457,-52.246,-55.176,0.000
1718226383.381,-38.086,-43.945,-50.293,-50.781,0.000
1718226383.385,-45.898,-39.551,-49.316,-30.762,0.000
1718226383.389,-57.617,-32.227,-51.270,-42.969,0.000
1718226383.393,-53.711,-36.621,-48.340,-62.500,0.000
1718226383.397,-38.086,-39.551,-49.316,-49.805,0.000
1718226383.401,-26.855,-34.180,-49.805,-33.691,0.000
1718226383.405,-33.691,-35.645,-48.828,-35.156,0.000
1718226383.409,-40.039,-37.109,-42.480,-31.738,0.000
1718226383.413,-38.086,-37.109,-42.969,-25.879,0.000
1718226383.417,-34.668,-27.832,-50.293,-24.902,0.000
1718226383.421,-33.691,-22.949,-52.734,-19.531,0.000
1718226383.424,-37.109,-28.320,-53.711,-18.555,0.000
1718226383.428,-32.227,-26.367,-46.387,-19.531,0.000
1718226383.432,-38.574,-35.645,-47.852,-20.996,0.000
1718226383.436,-46.875,-49.316,-49.316,-17.578,0.000
1718226383.440,-40.039,-47.363,-41.992,-16.602,0.000
1718226383.444,-24.414,-35.645,-43.945,-13.184,0.000
1718226383.448,-24.414,-31.250,-39.551,-11.719,0.000
1718226383.452,-29.297,-36.621,-36.621,-26.367,0.000
1718226383.456,-24.414,-35.156,-38.086,-22.949,0.000
1718226383.460,-41.504,-40.039,-42.969,-20.508,0.000
1718226383.464,-46.875,-44.922,-52.734,-36.621,0.000
1718226383.467,-37.109,-43.945,-45.410,-34.668,0.000
1718226383.471,-37.598,-42.480,-31.250,-32.227,0.000
1718226383.475,-28.809,-42.480,-35.156,-21.484,0.000
1718226383.479,-28.320,-44.434,-38.086,-5.859,0.000
1718226383.483,-35.645,-40.527,-38.086,-28.809,0.000
1718226383.487,-48.828,-45.898,-47.363,-41.016,0.000
1718226383.491,-56.641,-41.992,-51.270,-41.992,0.000
1718226383.495,-44.434,-38.574,-56.152,-44.922,0.000
1718226383.499,-53.223,-52.734,-61.035,-54.688,0.000
1718226383.503,-52.734,-49.805,-40.039,-49.805,0.000
1718226383.507,-43.945,-46.875,-43.945,-47.852,0.000
1718226383.510,-51.270,-50.293,-57.129,-45.410,0.000
1718226383.514,-52.734,-42.969,-31.738,-37.109,0.000
1718226383.518,-56.152,-42.969,-29.297,-41.016,0.000
1718226383.522,-51.758,-38.574,-40.527,-39.062,0.000
1718226383.526,-50.781,-40.527,-42.969,-45.898,0.000
1718226383.530,-50.293,-42.969,-37.109,-49.805,0.000
1718226383.534,-44.922,-41.016,-34.180,-30.762,0.000
1718226383.538,-51.270,-47.852,-44.434,-29.785,0.000
1718226383.542,-54.199,-48.828,-42.480,-39.551,0.000
1718226383.546,-50.781,-45.898,-35.645,-32.715,0.000
1718226383.549,-46.387,-44.434,-36.621,-41.992,0.000
1718226383.553,-35.156,-32.227,-32.715,-27.832,0.000
1718226383.557,-38.574,-30.762,-32.227,-17.090,0.000
1718226383.561,-42.480,-40.527,-35.645,-29.785,0.000
1718226383.565,-37.109,-41.016,-39.062,-9.277,0.000
1718226383.569,-42.969,-40.039,-43.457,-11.719,0.000
1718226383.573,-44.922,-41.016,-37.598,-33.691,0.000
1718226383.577,-43.457,-43.945,-39.062,-42.480,0.000
1718226383.581,-46.875,-45.410,-52.734,-43.457,0.000
1718226383.585,-37.109,-43.945,-50.293,-37.598,0.000
1718226383.589,-28.320,-39.062,-44.434,-28.320,0.000
1718226383.592,-39.551,-44.922,-52.246,-36.621,0.000
1718226383.596,-35.645,-47.852,-56.641,-37.598,0.000
1718226383.600,-35.156,-48.828,-60.059,-48.340,0.000
1718226383.604,-42.480,-49.316,-51.758,-56.641,0.000
1718226383.608,-39.062,-45.898,-37.109,-22.949,0.000
1718226383.612,-45.898,-48.828,-41.992,-20.508,0.000
1718226383.616,-55.664,-44.922,-41.016,-38.574,0.000
1718226383.620,-40.039,-41.016,-37.598,-35.645,0.000
1718226383.624,-45.898,-53.223,-52.734,-22.949,0.000
1718226383.628,-41.504,-52.246,-49.316,-31.250,0.000
1718226383.631,-37.109,-47.852,-37.598,-50.293,0.000
1718226383.635,-48.828,-49.805,-36.621,-34.668,0.000
1718226383.639,-46.875,-55.664,-47.852,-36.621,0.000
1718226383.643,-50.781,-58.594,-46.875,-42.480,0.000
1718226383.647,-48.340,-58.105,-40.527,-36.133,0.000
1718226383.651,-38.086,-55.176,-45.410,-36.621,0.000
1718226383.655,-38.574,-49.805,-50.781,-25.879,0.000
1718226383.659,-38.574,-48.340,-43.457,-26.367,0.000
1718226383.663,-34.180,-48.340,-45.898,-39.551,0.000
1718226383.667,-38.574,-49.805,-51.758,-45.410,0.000
1718226383.671,-45.410,-52.246,-47.363,-43.945,0.000
1718226383.674,-52.246,-52.734,-52.246,-46.875,0.000
1718226383.678,-45.898,-50.293,-49.316,-41.504,0.000
1718226383.682,-39.551,-50.781,-50.293,-35.645,0.000
1718226383.686,-45.410,-48.828,-49.316,-29.297,0.000
1718226383.690,-44.922,-50.781,-48.340,-21.973,0.000
1718226383.694,-46.875,-52.734,-55.664,-38.574,0.000
1718226383.698,-49.805,-47.852,-57.129,-35.645,0.000
1718226383.702,-46.387,-49.316,-61.523,-24.414,0.000
1718226383.706,-47.363,-45.898,-51.758,-30.762,0.000
1718226383.710,-51.270,-41.504,-42.969,-36.133,0.000
1718226383.714,-47.363,-49.316,-39.062,-36.133,0.000
1718226383.717,-49.316,-55.176,-38.574,-36.621,0.000
1718226383.721,-50.781,-53.711,-49.316,-29.297,0.000
1718226383.725,-42.969,-45.898,-38.574,-23.926,0.000
1718226383.729,-41.504,-47.852,-43.457,-59.082,0.000
1718226383.733,-47.363,-54.199,-45.410,-59.082,0.000
1718226383.737,-45.898,-52.734,-39.062,-39.551,0.000
1718226383.741,-51.270,-51.270,-38.086,-43.457,0.000
1718226383.745,-39.062,-46.387,-29.785,-41.992,0.000
1718226383.749,-42.480,-55.664,-39.551,-48.828,0.000
1718226383.753,-61.523,-67.383,-29.297,-29.785,0.000
1718226383.757,-37.598,-49.805,-17.578,-6.836,0.000
1718226383.760,-45.898,-47.852,-28.320,-26.855,0.000
1718226383.764,-41.504,-54.688,-36.621,-41.504,0.000
1718226383.768,-27.344,-39.062,-41.504,-44.434,0.000
1718226383.772,-26.367,-28.809,-36.621,-28.809,0.000
1718226383.776,-18.555,-26.367,-44.434,-33.203,0.000
1718226383.780,-22.461,-28.320,-51.270,-47.852,0.000
1718226383.784,-11.719,-26.855,-38.574,-35.156,0.000
1718226383.788,-6.836,-21.484,-36.133,-11.719,0.000
1718226383.792,-7.812,-18.066,-40.527,-9.277,0.000
1718226383.796,-9.766,-12.695,-35.645,-19.043,0.000
1718226383.800,-14.160,-9.277,-44.922,-17.090,0.000
1718226383.803,-1.465,-6.836,-46.875,4.395,0.000
1718226383.807,-4.395,-14.160,-42.969,-0.488,0.000
1718226383.811,-19.531,-22.949,-51.758,-16.113,0.000
1718226383.815,-19.531,-23.438,-63.965,-10.742,0.000
1718226383.819,-18.555,-26.855,-53.223,-9.766,0.000
1718226383.823,-19.531,-23.438,-33.691,-5.371,0.000
1718226383.827,-32.715,-23.438,-45.898,-16.113,0.000
1718226383.831,-32.715,-27.344,-53.223,-9.277,0.000
1718226383.835,-32.715,-23.438,-34.180,-1.953,0.000
1718226383.839,-27.344,-26.367,-38.086,-9.766,0.000
1718226383.842,-20.508,-27.832,-42.480,-5.371,0.000
1718226383.846,-27.344,-32.715,-35.156,-8.789,0.000
1718226383.850,-15.625,-35.156,-42.969,7.324,0.000
1718226383.854,-5.371,-37.598,-47.852,-2.441,0.000
1718226383.858,-22.949,-38.086,-45.898,-21.973,0.000
1718226383.862,-19.531,-28.809,-37.598,-12.207,0.000
1718226383.866,-10.254,-21.973,-37.598,-9.277,0.000
1718226383.870,-32.715,-38.574,-54.199,-30.273,0.000
1718226383.874,-52.734,-52.734,-55.176,-47.363,0.000
1718226383.878,-39.062,-46.875,-45.410,-29.297,0.000
1718226383.882,-37.598,-44.434,-48.828,-21.973,0.000
1718226383.885,-46.875,-45.410,-49.316,-36.133,0.000
1718226383.889,-38.086,-35.156,-54.199,-28.809,0.000
1718226383.893,-26.855,-30.762,-48.340,-9.766,0.000
1718226383.897,-34.668,-40.039,-44.922,-13.672,0.000
1718226383.901,-34.180,-31.250,-45.410,-24.414,0.000
1718226383.905,-33.203,-33.203,-41.016,-30.762,0.000
1718226383.909,-49.316,-45.410,-46.387,-25.391,0.000
1718226383.913,-40.527,-37.598,-55.176,-24.414,0.000
1718226383.917,-34.180,-33.691,-52.734,-39.062,0.000
1718226383.921,-51.270,-40.527,-44.434,-37.109,0.000
1718226383.925,-53.711,-44.922,-49.316,-33.691,0.000
1718226383.928,-27.344,-45.410,-53.223,-31.250,0.000
1718226383.932,-27.832,-47.363,-50.293,-23.926,0.000
1718226383.936,-39.062,-47.852,-42.480,-21.973,0.000
1718226383.940,-34.668,-48.828,-39.551,-7.812,0.000
1718226383.944,-27.832,-48.340,-49.805,-25.879,0.000
1718226383.948,-12.207,-33.691,-44.922,-34.180,0.000
1718226383.952,-24.414,-34.668,-41.992,-30.762,0.000
1718226383.956,-44.922,-49.316,-47.852,-37.598,0.000
1718226383.960,-38.574,-45.898,-45.898,-26.367,0.000
1718226383.964,-26.367,-40.039,-45.410,-19.531,0.000
1718226383.967,-31.250,-47.852,-42.480,-18.066,0.000
1718226383.971,-32.227,-43.457,-35.645,-7.324,0.000
1718226383.975,-31.250,-40.039,-45.898,-17.578,0.000
1718226383.979,-29.297,-42.480,-49.805,-40.039,0.000
1718226383.983,-35.156,-45.410,-32.715,-23.438,0.000
1718226383.987,-46.387,-52.246,-41.016,-12.695,0.000
1718226383.991,-33.691,-41.992,-57.617,-12.207,0.000
1718226383.995,-30.762,-40.527,-54.688,-14.648,0.000
1718226383.999,-44.434,-48.828,-40.039,-26.367,0.000
1718226384.003,-41.504,-44.922,-40.527,-30.273,0.000
1718226384.007,-27.344,-37.109,-36.621,-28.320,0.000
1718226384.010,-30.273,-38.086,-40.039,-13.184,0.000
1718226384.014,-39.551,-41.504,-41.992,-14.160,0.000
1718226384.018,-33.203,-38.574,-31.250,-36.133,0.000
1718226384.022,-34.668,-39.551,-42.969,-38.574,0.000
1718226384.026,-34.180,-39.551,-51.758,-21.484,0.000
1718226384.030,-44.922,-49.316,-55.176,-29.297,0.000
1718226384.034,-46.875,-48.828,-59.082,-31.738,0.000
1718226384.038,-30.273,-35.645,-42.969,-23.438,0.000
1718226384.042,-28.809,-36.621,-35.645,-24.414,0.000
1718226384.046,-34.180,-42.480,-49.316,-15.137,0.000
1718226384.049,-35.645,-48.828,-47.363,-20.508,0.000
1718226384.053,-34.668,-44.434,-37.598,-29.785,0.000
1718226384.057,-30.762,-45.410,-44.434,-29.785,0.000
1718226384.061,-40.039,-58.594,-53.223,-24.414,0.000
1718226384.065,-42.480,-62.012,-52.734,-27.832,0.000
1718226384.069,-41.016,-55.176,-50.293,-32.715,0.000
1718226384.073,-49.805,-48.828,-52.734,-28.809,0.000
1718226384.077,-46.387,-49.805,-49.316,-27.344,0.000
1718226384.081,-42.480,-47.363,-39.062,-23.926,0.000
1718226384.085,-42.480,-40.039,-43.457,-26.855,0.000
1718226384.089,-40.039,-46.387,-40.527,-26.367,0.000
1718226384.092,-49.316,-53.711,-45.898,-34.668,0.000
1718226384.096,-37.109,-36.621,-46.875,-42.969,0.000
1718226384.100,-23.926,-32.227,-36.133,-34.668,0.000
1718226384.104,-46.387,-48.828,-39.551,-36.621,0.000
1718226384.108,-61.523,-51.758,-45.410,-44.434,0.000
1718226384.112,-50.781,-41.992,-50.293,-42.480,0.000
1718226384.116,-36.133,-38.086,-40.527,-32.227,0.000
1718226384.120,-33.203,-47.363,-34.180,-39.551,0.000
1718226384.124,-38.574,-57.617,-47.852,-45.410,0.000
1718226384.128,-36.621,-53.711,-50.781,-34.180,0.000
1718226384.132,-40.039,-45.410,-53.711,-38.086,0.000
1718226384.135,-41.992,-51.270,-56.152,-33.691,0.000
1718226384.139,-43.457,-57.617,-51.758,-25.391,0.000
1718226384.143,-41.016,-50.293,-43.945,-15.137,0.000
1718226384.147,-31.250,-42.969,-36.133,-13.672,0.000
1718226384.151,-28.320,-50.781,-53.223,-30.273,0.000
1718226384.155,-34.668,-55.176,-57.129,-37.109,0.000
1718226384.159,-36.621,-54.688,-44.434,-41.504,0.000
1718226384.163,-28.320,-50.293,-39.551,-35.645,0.000
1718226384.167,-38.086,-53.711,-38.574,-33.691,0.000
1718226384.171,-35.156,-62.988,-55.176,-22.949,0.000
1718226384.175,-12.695,-55.176,-58.594,3.418,0.000
1718226384.178,-41.016,-57.129,-44.922,-14.160,0.000
1718226384.182,-67.871,-67.871,-41.992,-59.570,0.000
1718226384.186,-62.012,-64.941,-41.016,-66.895,0.000
1718226384.190,-71.289,-69.336,-45.410,-56.152,0.000
1718226384.194,-82.520,-83.008,-35.156,-65.430,0.000
1718226384.198,-77.637,-77.637,-22.461,-61.035,0.000
1718226384.202,-78.613,-78.613,-25.391,-42.480,0.000
1718226384.206,-77.637,-91.797,-28.809,-62.012,0.000
1718226384.210,-66.895,-83.496,-26.367,-64.941,0.000
1718226384.214,-79.590,-81.055,-13.672,-55.176,0.000
1718226384.217,-76.172,-82.520,-13.672,-53.711,0.000
1718226384.221,-53.711,-75.684,-32.227,-51.270,0.000
1718226384.225,-49.805,-72.266,-29.785,-52.734,0.000
1718226384.229,-49.316,-68.848,-25.391,-38.086,0.000
1718226384.233,-54.199,-67.383,-32.715,-42.480,0.000
1718226384.237,-58.594,-72.754,-28.809,-46.875,0.000
1718226384.241,-60.059,-67.871,-32.227,-29.785,0.000
1718226384.245,-49.316,-60.059,-39.062,-35.645,0.000
1718226384.249,-40.527,-62.500,-38.086,-41.016,0.000
1718226384.253,-54.199,-57.617,-39.062,-36.621,0.000
1718226384.257,-64.453,-62.012,-45.410,-41.504,0.000
1718226384.260,-65.430,-62.012,-39.551,-44.434,0.000
1718226384.264,-59.570,-52.734,-43.457,-47.363,0.000
1718226384.268,-48.828,-62.012,-55.664,-31.250,0.000
1718226384.272,-47.852,-60.547,-46.875,-18.066,0.000
1718226384.276,-45.898,-56.641,-45.898,-42.969,0.000
1718226384.280,-52.734,-62.500,-46.387,-47.363,0.000
1718226384.284,-52.734,-62.012,-35.645,-29.785,0.000
1718226384.288,-48.340,-62.500,-45.898,-34.180,0.000
1718226384.292,-49.316,-62.988,-52.734,-31.738,0.000
1718226384.296,-46.875,-51.270,-41.992,-26.367,0.000
1718226384.300,-58.105,-47.852,-40.527,-26.855,0.000
1718226384.303,-62.500,-58.105,-43.945,-41.016,0.000
1718226384.307,-42.480,-45.410,-45.898,-23.438,0.000
1718226384.311,-34.668,-42.969,-58.594,-20.020,0.000
1718226384.315,-57.617,-52.734,-42.480,-28.809,0.000
1718226384.319,-64.941,-46.875,-27.344,-11.230,0.000
1718226384.323,-60.059,-41.504,-41.504,-28.809,0.000
1718226384.327,-55.176,-39.551,-41.016,-30.762,0.000
1718226384.331,-51.758,-46.875,-42.480,-22.461,0.000
1718226384.335,-47.852,-53.223,-55.176,-34.668,0.000
1718226384.339,-41.504,-47.852,-49.316,-22.949,0.000
1718226384.342,-45.898,-49.316,-42.969,-11.230,0.000
1718226384.346,-54.688,-50.293,-43.945,-21.973,0.000
1718226384.350,-49.316,-42.969,-34.668,-49.805,0.000
1718226384.354,-53.711,-46.875,-44.434,-50.293,0.000
1718226384.358,-43.945,-47.363,-41.016,-16.602,0.000
1718226384.362,-26.855,-39.062,-35.645,-15.137,0.000
1718226384.366,-27.344,-34.180,-35.156,-16.602,0.000
1718226384.370,-34.180,-45.898,-32.715,-19.531,0.000
1718226384.374,-41.992,-47.852,-41.016,-31.738,0.000
1718226384.378,-38.574,-43.457,-42.969,-30.273,0.000
1718226384.382,-51.270,-44.922,-50.781,-40.039,0.000
1718226384.385,-54.688,-41.016,-52.734,-30.273,0.000
1718226384.389,-54.688,-49.805,-40.527,-19.043,0.000
1718226384.393,-64.941,-59.570,-42.480,-35.156,0.000
1718226384.397,-63.477,-55.176,-42.480,-47.363,0.000
1718226384.401,-58.594,-50.781,-44.922,-51.270,0.000
1718226384.405,-58.105,-47.852,-43.945,-38.574,0.000
1718226384.409,-51.758,-42.969,-39.062,-40.039,0.000
1718226384.413,-37.598,-39.551,-43.457,-41.504,0.000
1718226384.417,-44.434,-40.527,-51.270,-34.668,0.000
1718226384.421,-57.617,-51.270,-51.270,-45.410,0.000
1718226384.425,-58.594,-47.363,-47.363,-36.621,0.000
1718226384.428,-55.176,-37.598,-39.551,-28.320,0.000
1718226384.432,-50.293,-42.480,-39.062,-47.852,0.000
1718226384.436,-44.434,-45.410,-43.945,-37.598,0.000
1718226384.440,-54.688,-44.922,-40.039,-34.180,0.000
1718226384.444,-54.199,-43.945,-44.922,-39.551,0.000
1718226384.448,-41.016,-46.875,-48.828,-15.625,0.000
1718226384.452,-34.668,-32.715,-40.039,-1.465,0.000
1718226384.456,-63.477,-31.738,-39.551,-33.203,0.000
1718226384.460,-82.031,-53.711,-50.781,-61.523,0.000
1718226384.464,-69.336,-51.270,-54.688,-39.551,0.000
1718226384.467,-83.984,-48.340,-42.969,-38.574,0.000
1718226384.471,-81.055,-43.945,-33.203,-46.875,0.000
1718226384.475,-77.148,-43.945,-48.828,-53.223,0.000
1718226384.479,-81.055,-53.223,-46.875,-72.754,0.000
1718226384.483,-87.402,-54.199,-41.992,-80.078,0.000
1718226384.487,-90.332,-50.781,-44.922,-74.219,0.000
1718226384.491,-63.965,-50.781,-45.410,-61.035,0.000
1718226384.495,-77.148,-59.570,-49.805,-47.363,0.000
1718226384.499,-89.355,-63.477,-43.457,-43.945,0.000
1718226384.503,-65.430,-53.223,-41.016,-46.875,0.000
1718226384.507,-53.711,-45.898,-37.109,-44.434,0.000
1718226384.510,-44.922,-47.852,-33.203,-43.945,0.000
1718226384.514,-50.293,-56.641,-47.363,-45.898,0.000
1718226384.518,-41.016,-47.363,-62.988,-37.598,0.000
1718226384.522,-43.457,-39.551,-52.734,-41.504,0.000
1718226384.526,-57.617,-50.781,-41.016,-43.457,0.000
1718226384.530,-32.227,-42.480,-35.156,-33.203,0.000
1718226384.534,-23.438,-37.109,-37.109,-37.598,0.000
1718226384.538,-43.457,-44.922,-42.480,-41.992,0.000
1718226384.542,-38.574,-45.410,-42.969,-41.016,0.000
1718226384.546,-20.508,-42.969,-40.039,-21.484,0.000
1718226384.550,-27.832,-43.945,-34.180,-16.602,0.000
1718226384.553,-40.039,-46.875,-41.016,-30.762,0.000
1718226384.557,-41.504,-45.898,-49.316,-33.203,0.000
1718226384.561,-19.043,-41.504,-36.133,-18.066,0.000
1718226384.565,-17.578,-37.598,-30.762,-20.020,0.000
1718226384.569,-37.598,-43.945,-41.504,-16.602,0.000
1718226384.573,-42.480,-52.734,-37.598,-21.973,0.000
1718226384.577,-37.598,-57.617,-34.180,-39.062,0.000
1718226384.581,-42.969,-59.082,-45.898,-24.414,0.000
1718226384.585,-41.016,-55.664,-46.387,-4.395,0.000
1718226384.589,-38.086,-50.781,-33.203,-13.184,0.000
1718226384.593,-39.551,-51.270,-38.086,-21.484,0.000
1718226384.596,-28.809,-54.199,-38.086,-14.160,0.000
1718226384.600,-10.742,-43.945,-38.574,8.301,0.000
1718226384.604,-24.414,-45.410,-37.109,5.371,0.000
1718226384.608,-39.551,-59.570,-41.016,-26.367,0.000
1718226384.612,-45.410,-57.129,-46.875,-23.438,0.000
1718226384.616,-43.945,-53.223,-42.969,-28.809,0.000
1718226384.620,-22.461,-45.410,-38.086,-14.648,0.000
1718226384.624,-27.832,-45.898,-51.270,-12.207,0.000
1718226384.628,-30.273,-58.594,-50.293,-28.320,0.000
1718226384.632,-24.902,-60.059,-39.062,-26.367,0.000
1718226384.635,-30.273,-57.617,-49.316,-26.855,0.000
1718226384.639,-32.227,-55.664,-43.945,-16.113,0.000
1718226384.643,-29.785,-53.223,-49.805,-14.160,0.000
1718226384.647,-33.691,-55.176,-52.734,-33.203,0.000
1718226384.651,-32.715,-57.617,-32.227,-37.109,0.000
1718226384.655,-17.090,-47.852,-20.020,-14.648,0.000
1718226384.659,-18.555,-46.875,-27.832,-8.301,0.000
1718226384.663,-41.504,-51.270,-34.180,-12.207,0.000
1718226384.667,-32.715,-42.480,-29.785,0.977,0.000
1718226384.671,-19.043,-46.387,-33.203,-8.789,0.000
1718226384.675,-31.738,-48.340,-38.086,-20.996,0.000
1718226384.678,-38.574,-56.641,-50.781,-20.508,0.000
1718226384.682,-40.527,-65.918,-46.387,-31.738,0.000
1718226384.686,-39.551,-55.176,-45.410,-34.180,0.000
1718226384.690,-39.062,-51.270,-51.758,-14.648,0.000
1718226384.694,-45.410,-54.688,-41.992,-24.414,0.000
1718226384.698,-28.809,-54.688,-35.156,-39.551,0.000
1718226384.702,-15.137,-48.828,-30.762,-11.719,0.000
1718226384.706,-24.414,-43.945,-40.527,0.488,0.000
1718226384.710,-33.691,-49.316,-47.363,-17.090,0.000
1718226384.714,-40.039,-54.199,-44.922,-29.297,0.000
1718226384.718,-46.875,-57.129,-49.316,-14.648,0.000
1718226384.721,-34.668,-46.387,-41.016,2.930,0.000
1718226384.725,-30.273,-46.387,-36.133,-11.230,0.000
1718226384.729,-32.715,-52.734,-41.016,-30.273,0.000
1718226384.733,-25.391,-54.199,-36.621,-21.484,0.000
1718226384.737,-41.016,-62.012,-46.387,-22.949,0.000
1718226384.741,-41.504,-56.152,-55.664,-21.973,0.000
1718226384.745,-32.715,-52.246,-54.688,-17.578,0.000
1718226384.749,-32.227,-49.805,-46.387,-18.066,0.000
1718226384.753,-32.715,-49.316,-39.062,0.000,0.000
1718226384.757,-39.062,-56.152,-45.410,2.930,0.000
1718226384.760,-38.086,-54.199,-43.457,-30.273,0.000
1718226384.764,-35.645,-54.199,-40.527,-32.227,0.000
1718226384.768,-28.320,-58.594,-41.992,-14.648,0.000
1718226384.772,-41.016,-61.035,-52.246,-30.762,0.000
1718226384.776,-42.969,-50.293,-46.875,-36.133,0.000
1718226384.780,-22.949,-43.945,-37.598,-21.484,0.000
1718226384.784,-26.855,-51.270,-50.781,-11.719,0.000
1718226384.788,-20.996,-50.781,-48.340,-7.324,0.000
1718226384.792,-20.508,-44.434,-38.574,-16.113,0.000
1718226384.796,-33.691,-43.945,-31.738,-24.414,0.000
1718226384.800,-40.527,-51.758,-36.133,-26.855,0.000
1718226384.803,-33.691,-48.340,-40.527,-20.508,0.000
1718226384.807,-24.414,-44.434,-31.738,-20.020,0.000
1718226384.811,-16.602,-41.504,-25.391,-20.508,0.000
1718226384.815,-22.461,-37.109,-33.691,-20.020,0.000
1718226384.819,-39.551,-49.316,-39.062,-36.133,0.000
1718226384.823,-35.156,-54.688,-38.086,-33.691,0.000
1718226384.827,-32.227,-53.711,-39.551,-34.668,0.000
1718226384.831,-40.039,-52.246,-33.691,-39.062,0.000
1718226384.835,-41.016,-47.363,-30.273,-41.504,0.000
1718226384.839,-40.039,-48.340,-30.273,-29.297,0.000
1718226384.843,-41.504,-50.781,-31.250,-26.855,0.000
1718226384.846,-38.086,-50.293,-29.297,-33.203,0.000
1718226384.850,-37.109,-44.434,-25.879,-19.043,0.000
1718226384.854,-42.480,-43.457,-34.180,-22.461,0.000
1718226384.858,-40.527,-47.852,-44.434,-15.137,0.000
1718226384.862,-52.734,-52.246,-43.457,-41.016,0.000
1718226384.866,-61.523,-59.570,-44.434,-59.570,0.000
1718226384.870,-55.176,-57.617,-47.363,-28.320,0.000
1718226384.874,-50.781,-57.617,-40.527,-27.344,0.000
1718226384.878,-42.480,-57.129,-39.551,-34.668,0.000
1718226384.882,-28.320,-49.805,-36.133,-40.039,0.000
1718226384.885,-37.598,-55.176,-32.715,-21.484,0.000
1718226384.889,-35.156,-48.340,-32.715,1.953,0.000
1718226384.893,-41.992,-46.387,-31.738,-25.879,0.000
1718226384.897,-55.664,-53.223,-42.480,-55.664,0.000
1718226384.901,-40.527,-48.828,-43.945,-36.133,0.000
1718226384.905,-55.176,-58.594,-48.828,-24.414,0.000
1718226384.909,-48.340,-54.199,-46.387,-36.621,0.000
1718226384.913,-33.691,-48.340,-39.062,-38.086,0.000
1718226384.917,-38.086,-50.293,-38.574,-39.062,0.000
1718226384.921,-39.062,-49.316,-36.133,-23.438,0.000
1718226384.925,-37.109,-49.316,-25.391,-16.113,0.000
1718226384.928,-19.531,-47.363,-26.855,-17.578,0.000
1718226384.932,-17.578,-54.688,-44.434,-28.320,0.000
1718226384.936,-40.527,-56.641,-51.270,-44.434,0.000
1718226384.940,-40.527,-61.035,-45.410,-33.691,0.000
1718226384.944,-35.645,-64.453,-41.504,-44.434,0.000
1718226384.948,-27.832,-53.223,-37.109,-35.645,0.000
1718226384.952,-29.785,-54.199,-51.758,-35.156,0.000
1718226384.956,-47.363,-57.129,-48.340,-39.062,0.000
1718226384.960,-44.922,-46.875,-38.574,-23.926,0.000
1718226384.964,-39.551,-46.875,-41.504,-37.598,0.000
1718226384.968,-43.945,-56.641,-35.645,-32.227,0.000
1718226384.971,-41.504,-55.176,-36.133,-44.434,0.000
1718226384.975,-65.918,-60.547,-39.062,-70.312,0.000
1718226384.979,-79.590,-52.734,-48.340,-64.453,0.000
1718226384.983,-94.238,-65.918,-55.664,-103.516,0.000
1718226384.987,-123.535,-82.520,-51.270,-124.023,0.000
1718226384.991,-145.996,-84.473,-45.898,-141.113,0.000
1718226384.995,-176.270,-96.680,-57.617,-165.039,0.000
1718226384.999,-192.871,-97.168,-62.988,-178.223,0.000
1718226385.003,-192.383,-88.867,-50.293,-183.594,0.000
1718226385.007,-222.656,-87.402,-53.223,-229.980,0.000
1718226385.010,-256.348,-104.980,-50.781,-264.160,0.000
1718226385.014,-240.723,-109.375,-43.945,-237.305,0.000
1718226385.018,-231.445,-93.262,-39.062,-200.195,0.000
1718226385.022,-221.680,-87.402,-28.320,-183.105,0.000
1718226385.026,-198.242,-78.613,-36.133,-190.918,0.000
1718226385.030,-166.504,-60.547,-32.715,-158.203,0.000
1718226385.034,-139.648,-56.641,-23.438,-130.859,0.000
1718226385.038,-125.977,-53.711,-35.156,-133.789,0.000
1718226385.042,-101.074,-44.434,-47.852,-118.164,0.000
1718226385.046,-70.312,-41.016,-41.992,-82.031,0.000
1718226385.050,-44.922,-32.227,-33.691,-48.828,0.000
1718226385.053,-32.715,-23.438,-42.480,-21.484,0.000
1718226385.057,0.977,-16.602,-39.551,0.000,0.000
1718226385.061,31.738,-5.859,-30.273,22.949,0.000
1718226385.065,48.828,-4.395,-37.109,63.477,0.000
1718226385.069,68.359,5.371,-41.504,68.359,0.000
1718226385.073,74.219,18.066,-45.898,58.594,0.000
1718226385.077,78.125,10.254,-51.270,63.477,0.000
1718226385.081,84.473,9.277,-49.805,68.848,0.000
1718226385.085,100.098,15.625,-45.410,90.820,0.000
1718226385.089,109.375,26.855,-39.551,112.793,0.000
1718226385.093,96.191,30.273,-43.457,111.816,0.000
1718226385.096,94.238,20.996,-50.293,95.215,0.000
1718226385.100,94.727,20.508,-51.758,74.219,0.000
1718226385.104,96.680,20.508,-56.152,74.707,0.000
1718226385.108,102.539,20.996,-50.781,91.309,0.000
1718226385.112,102.051,15.625,-49.316,96.191,0.000
1718226385.116,99.121,14.160,-43.945,96.680,0.000
1718226385.120,86.426,19.043,-37.598,89.844,0.000
1718226385.124,71.289,11.719,-42.480,72.754,0.000
1718226385.128,65.430,6.348,-43.945,71.777,0.000
1718226385.132,54.199,4.395,-53.711,72.754,0.000
1718226385.135,55.176,-1.953,-52.734,62.988,0.000
1718226385.139,45.898,-10.254,-48.828,57.129,0.000
1718226385.143,41.016,-10.742,-50.293,42.969,0.000
1718226385.147,38.574,-7.812,-43.945,41.504,0.000
1718226385.151,35.156,-8.301,-47.363,47.363,0.000
1718226385.155,35.156,-8.301,-51.758,45.410,0.000
1718226385.159,34.180,-14.648,-53.223,53.711,0.000
1718226385.163,34.180,-20.020,-53.223,33.203,0.000
1718226385.167,25.391,-20.020,-41.016,24.414,0.000
1718226385.171,21.973,-20.020,-36.621,34.180,0.000
1718226385.175,28.809,-14.648,-34.668,38.086,0.000
1718226385.178,27.344,-17.578,-31.738,35.156,0.000
1718226385.182,24.414,-22.949,-38.574,31.738,0.000
1718226385.186,15.137,-25.391,-36.621,29.785,0.000
1718226385.190,11.719,-24.414,-35.645,18.066,0.000
1718226385.194,7.812,-17.578,-43.457,17.578,0.000
1718226385.198,-2.930,-22.949,-40.039,19.531,0.000
1718226385.202,-0.977,-31.250,-40.039,14.160,0.000
1718226385.206,-6.348,-30.762,-41.016,9.277,0.000
1718226385.210,-0.977,-28.809,-33.203,7.324,0.000
1718226385.214,6.348,-27.832,-30.762,14.648,0.000
1718226385.218,-20.996,-36.133,-43.945,-6.836,0.000
1718226385.221,-27.832,-31.738,-44.434,-24.902,0.000
1718226385.225,-5.859,-31.250,-36.621,-6.348,0.000
1718226385.229,-0.977,-38.086,-44.922,-0.977,0.000
1718226385.233,-18.555,-34.180,-48.828,-15.625,0.000
1718226385.237,0.000,-29.297,-41.016,-17.090,0.000
1718226385.241,5.859,-29.297,-42.969,-4.883,0.000
1718226385.245,-29.785,-37.109,-43.457,-12.695,0.000
1718226385.249,-25.391,-44.434,-48.340,-26.367,0.000
1718226385.253,-16.602,-39.062,-50.781,-18.555,0.000
1718226385.257,-15.625,-33.203,-44.434,-22.949,0.000
1718226385.260,-12.695,-35.645,-38.574,-12.695,0.000
1718226385.264,-20.508,-38.574,-42.480,0.488,0.000
1718226385.268,-24.902,-35.156,-45.410,-22.461,0.000
1718226385.272,-22.461,-38.086,-41.016,-27.832,0.000
1718226385.276,-11.230,-34.180,-39.062,-4.395,0.000
1718226385.280,-12.695,-25.391,-36.621,-5.859,0.000
1718226385.284,-21.973,-25.391,-45.898,-26.855,0.000
1718226385.288,-18.066,-25.391,-47.363,-16.602,0.000
1718226385.292,-22.461,-25.879,-39.551,0.000,0.000
1718226385.296,-24.902,-28.809,-42.969,-11.230,0.000
1718226385.300,-23.438,-27.344,-37.598,-14.648,0.000
1718226385.303,-18.555,-23.438,-37.109,3.418,0.000
1718226385.307,-25.391,-27.344,-44.434,0.977,0.000
1718226385.311,-34.668,-29.297,-48.828,-18.066,0.000
1718226385.315,-19.531,-29.297,-46.387,-18.066,0.000
1718226385.319,-25.391,-36.621,-44.434,-10.742,0.000
1718226385.323,-33.203,-37.598,-42.480,-10.742,0.000
1718226385.327,-24.414,-34.180,-51.270,-9.766,0.000
1718226385.331,-21.484,-33.203,-54.199,-15.137,0.000
1718226385.335,-14.648,-35.156,-41.992,-11.719,0.000
1718226385.339,-14.160,-39.551,-41.016,-5.371,0.000
1718226385.343,-13.184,-40.527,-46.875,-1.465,0.000
1718226385.346,-24.414,-40.527,-39.062,-14.648,0.000
1718226385.350,-37.598,-49.316,-40.039,-16.113,0.000
1718226385.354,-35.645,-51.270,-42.480,-17.090,0.000
1718226385.358,-33.691,-44.434,-40.527,-25.391,0.000
1718226385.362,-31.738,-45.898,-47.852,-15.625,0.000
1718226385.366,-26.367,-54.688,-46.875,-13.672,0.000
1718226385.370,-27.344,-57.617,-48.340,-20.508,0.000
1718226385.374,-30.273,-53.223,-43.945,-23.926,0.000
1718226385.378,-18.066,-49.805,-36.133,-22.461,0.000
1718226385.382,-19.043,-44.922,-41.992,-23.926,0.000
1718226385.386,-18.066,-41.504,-38.574,-9.766,0.000
1718226385.389,-7.812,-40.527,-36.133,-2.441,0.000
1718226385.393,-22.949,-46.875,-47.363,-19.043,0.000
1718226385.397,-30.273,-53.711,-50.781,-27.832,0.000
1718226385.401,-25.391,-51.270,-43.945,-26.855,0.000
1718226385.405,-30.273,-46.387,-43.945,-25.391,0.000
1718226385.409,-39.551,-56.152,-48.340,-41.992,0.000
1718226385.413,-34.668,-51.270,-44.922,-50.781,0.000
1718226385.417,-27.832,-40.039,-42.969,-38.574,0.000
1718226385.421,-33.691,-51.758,-41.016,-30.762,0.000
1718226385.425,-23.926,-58.105,-45.898,-30.762,0.000
1718226385.429,-29.297,-53.711,-51.758,-20.508,0.000
1718226385.432,-44.434,-48.828,-56.152,-23.926,0.000
1718226385.436,-44.434,-53.711,-61.035,-33.203,0.000
1718226385.440,-37.109,-60.059,-51.270,-26.367,0.000
1718226385.444,-48.828,-56.641,-54.199,-41.992,0.000
1718226385.448,-54.199,-54.199,-61.523,-54.688,0.000
1718226385.452,-49.805,-54.199,-42.969,-34.180,0.000
1718226385.456,-47.363,-51.758,-35.645,-20.508,0.000
1718226385.460,-35.645,-50.293,-45.410,-27.344,0.000
1718226385.464,-35.156,-41.016,-44.434,-41.016,0.000
1718226385.468,-34.180,-43.457,-44.434,-38.574,0.000
1718226385.471,-26.855,-47.852,-39.062,-22.949,0.000
1718226385.475,-23.438,-43.457,-39.062,-20.020,0.000
1718226385.479,-34.180,-46.387,-46.875,-16.113,0.000
1718226385.483,-28.320,-44.922,-38.574,-6.836,0.000
1718226385.487,-26.855,-44.922,-33.691,-15.137,0.000
1718226385.491,-40.527,-50.781,-43.945,-55.664,0.000
1718226385.495,-29.297,-39.062,-42.480,-48.828,0.000
1718226385.499,-24.414,-30.273,-27.344,-34.668,0.000
1718226385.503,-41.992,-47.363,-32.227,-44.434,0.000
1718226385.507,-36.133,-57.129,-38.086,-39.062,0.000
1718226385.511,-22.949,-51.270,-32.227,-32.227,0.000
1718226385.514,-37.598,-49.805,-41.992,-30.762,0.000
1718226385.518,-45.898,-44.434,-48.340,-44.434,0.000
1718226385.522,-35.156,-46.387,-39.551,-52.246,0.000
1718226385.526,-21.484,-45.898,-34.180,-44.922,0.000
1718226385.530,-20.996,-37.109,-44.434,-24.414,0.000
1718226385.534,-26.367,-45.410,-49.805,-19.043,0.000
1718226385.538,-33.691,-48.828,-42.480,-33.691,0.000
1718226385.542,-38.086,-49.316,-40.039,-37.598,0.000
1718226385.546,-31.738,-53.711,-41.992,-18.555,0.000
1718226385.550,-34.668,-56.152,-52.246,-12.695,0.000
1718226385.553,-36.133,-56.152,-46.875,-30.273,0.000
1718226385.557,-34.180,-55.176,-41.992,-36.621,0.000
1718226385.561,-35.156,-52.734,-43.945,-38.574,0.000
1718226385.565,-27.344,-49.805,-36.133,-27.344,0.000
1718226385.569,-32.715,-49.316,-44.922,-35.156,0.000
1718226385.573,-43.457,-50.293,-56.152,-51.270,0.000
1718226385.577,-33.203,-41.992,-48.340,-25.391,0.000
1718226385.581,-29.785,-39.551,-41.992,-25.879,0.000
1718226385.585,-34.668,-42.969,-39.062,-36.621,0.000
1718226385.589,-39.062,-43.945,-34.180,-26.367,0.000
1718226385.593,-41.992,-50.293,-29.785,-31.738,0.000
1718226385.596,-38.086,-46.875,-32.227,-37.598,0.000
1718226385.600,-33.691,-42.480,-35.156,-18.066,0.000
1718226385.604,-41.016,-42.480,-38.574,-22.461,0.000
1718226385.608,-46.387,-46.387,-37.109,-38.574,0.000
1718226385.612,-41.504,-46.875,-37.598,-28.809,0.000
1718226385.616,-33.203,-46.875,-49.316,-28.809,0.000
1718226385.620,-34.668,-42.969,-46.875,-30.762,0.000
1718226385.624,-35.645,-38.574,-34.180,-18.066,0.000
1718226385.628,-39.062,-46.387,-32.715,-27.832,0.000
1718226385.632,-43.945,-39.062,-36.133,-40.039,0.000
1718226385.636,-45.410,-41.504,-42.969,-35.645,0.000
1718226385.639,-45.898,-50.293,-51.270,-36.133,0.000
1718226385.643,-38.086,-44.434,-52.246,-27.344,0.000
1718226385.647,-45.898,-41.992,-48.828,-30.762,0.000
1718226385.651,-40.527,-43.457,-48.340,-37.109,0.000
1718226385.655,-35.156,-51.270,-52.246,-31.250,0.000
1718226385.659,-35.645,-52.246,-49.316,-40.039,0.000
1718226385.663,-37.109,-48.340,-40.527,-13.672,0.000
1718226385.667,-58.105,-47.852,-46.875,-19.531,0.000
1718226385.671,-60.547,-51.270,-53.223,-45.898,0.000
1718226385.675,-56.152,-54.199,-42.480,-43.945,0.000
1718226385.679,-57.129,-53.711,-34.180,-24.414,0.000
1718226385.682,-63.965,-54.199,-38.086,-30.762,0.000
1718226385.686,-63.965,-46.875,-40.527,-50.293,0.000
1718226385.690,-52.734,-38.086,-42.480,-40.039,0.000
1718226385.694,-50.293,-40.039,-47.363,-36.133,0.000
1718226385.698,-45.898,-41.504,-44.922,-40.039,0.000
1718226385.702,-42.480,-39.062,-44.434,-41.992,0.000
1718226385.706,-43.457,-37.109,-46.875,-37.598,0.000
1718226385.710,-48.340,-41.016,-48.340,-48.340,0.000
1718226385.714,-47.363,-42.480,-47.852,-55.664,0.000
1718226385.718,-35.645,-44.434,-42.480,-42.969,0.000
1718226385.721,-29.785,-49.805,-36.621,-28.809,0.000
1718226385.725,-46.387,-49.805,-41.016,-35.156,0.000
1718226385.729,-44.922,-52.246,-46.875,-51.270,0.000
1718226385.733,-36.133,-45.410,-42.480,-43.945,0.000
1718226385.737,-39.551,-46.875,-45.410,-32.227,0.000
1718226385.741,-30.273,-45.410,-41.992,-46.875,0.000
1718226385.745,-32.227,-46.875,-40.039,-41.504,0.000
1718226385.749,-40.527,-49.316,-39.551,-31.250,0.000
1718226385.753,-45.410,-43.945,-43.945,-27.344,0.000
1718226385.757,-41.992,-46.875,-50.293,-20.020,0.000
1718226385.761,-30.762,-44.922,-48.340,-30.273,0.000
1718226385.764,-34.668,-39.062,-54.688,-22.461,0.000
1718226385.768,-36.133,-47.852,-52.734,-19.531,0.000
1718226385.772,-33.203,-52.734,-44.922,-25.879,0.000
1718226385.776,-27.344,-39.062,-48.828,-27.344,0.000
1718226385.780,-34.668,-39.062,-48.828,-27.344,0.000
1718226385.784,-41.992,-42.480,-39.062,-20.508,0.000
1718226385.788,-39.062,-42.480,-45.410,-37.109,0.000
1718226385.792,-46.387,-41.992,-54.199,-57.617,0.000
1718226385.796,-47.852,-46.387,-55.176,-50.781,0.000
1718226385.800,-39.551,-49.805,-59.570,-45.898,0.000
1718226385.804,-26.855,-42.969,-59.082,-59.570,0.000
1718226385.807,-28.809,-38.086,-57.617,-60.547,0.000
1718226385.811,-25.879,-37.109,-56.641,-48.340,0.000
1718226385.815,-21.973,-41.992,-50.781,-29.785,0.000
1718226385.819,-36.133,-43.457,-49.805,-18.555,0.000
1718226385.823,-32.715,-42.480,-58.594,-37.598,0.000
1718226385.827,-27.344,-46.387,-51.758,-23.926,0.000
1718226385.831,-34.668,-41.992,-46.387,-16.602,0.000
1718226385.835,-38.574,-34.180,-42.969,-17.578,0.000
1718226385.839,-36.621,-38.086,-41.992,-10.742,0.000
1718226385.843,-44.434,-43.457,-44.922,-33.691,0.000
1718226385.846,-51.270,-42.480,-51.270,-34.668,0.000
1718226385.850,-41.016,-45.898,-52.734,-18.555,0.000
1718226385.854,-36.621,-45.898,-45.410,-20.508,0.000
1718226385.858,-53.223,-50.781,-47.363,-23.438,0.000
1718226385.862,-58.594,-52.246,-48.340,-20.020,0.000
1718226385.866,-38.086,-39.551,-45.410,-10.254,0.000
1718226385.870,-37.109,-32.715,-36.133,-11.230,0.000
1718226385.874,-59.082,-42.969,-43.457,-33.203,0.000
1718226385.878,-62.012,-47.852,-51.758,-54.688,0.000
1718226385.882,-74.219,-50.781,-51.270,-77.148,0.000
1718226385.886,-83.496,-56.641,-54.688,-81.543,0.000
1718226385.889,-91.797,-63.477,-47.363,-81.055,0.000
1718226385.893,-91.309,-73.242,-46.875,-81.055,0.000
1718226385.897,-101.562,-77.637,-51.758,-94.727,0.000
1718226385.901,-110.352,-81.055,-50.293,-96.191,0.000
1718226385.905,-98.145,-79.102,-39.551,-76.660,0.000
1718226385.909,-95.703,-78.125,-33.203,-74.707,0.000
1718226385.913,-80.566,-81.055,-40.039,-81.055,0.000
1718226385.917,-78.613,-77.148,-38.086,-83.496,0.000
1718226385.921,-72.754,-73.730,-34.668,-65.430,0.000
1718226385.925,-64.453,-71.777,-44.434,-52.246,0.000
1718226385.929,-68.848,-65.430,-43.945,-47.852,0.000
1718226385.932,-63.477,-59.570,-34.180,-49.316,0.000
1718226385.936,-50.293,-58.594,-32.715,-39.551,0.000
1718226385.940,-50.781,-56.641,-40.039,-28.809,0.000
1718226385.944,-52.246,-56.152,-39.551,-38.086,0.000
1718226385.948,-44.434,-62.012,-36.621,-34.180,0.000
1718226385.952,-45.410,-67.383,-42.969,-23.926,0.000
1718226385.956,-41.016,-62.988,-40.039,-19.043,0.000
1718226385.960,-33.691,-57.129,-40.039,-30.762,0.000
1718226385.964,-26.855,-56.152,-37.598,-28.320,0.000
1718226385.968,-29.785,-52.734,-39.062,-20.020,0.000
1718226385.971,-36.621,-47.363,-41.992,-37.598,0.000
1718226385.975,-30.273,-46.387,-30.762,-40.039,0.000
1718226385.979,-39.551,-50.781,-34.180,-50.781,0.000
1718226385.983,-38.574,-43.457,-42.480,-44.434,0.000
1718226385.987,-39.062,-41.016,-41.992,-38.574,0.000
1718226385.991,-49.316,-46.875,-37.598,-46.387,0.000
1718226385.995,-36.621,-41.016,-30.762,-33.203,0.000
1718226385.999,-29.297,-43.457,-28.809,-25.879,0.000
1718226386.003,-30.762,-50.781,-32.715,-29.297,0.000
1718226386.007,-33.691,-47.363,-36.133,-30.273,0.000
1718226386.011,-30.762,-52.734,-38.574,-26.367,0.000
1718226386.014,-29.785,-54.199,-37.109,-15.137,0.000
1718226386.018,-26.855,-49.316,-32.715,-22.461,0.000
1718226386.022,-27.832,-50.293,-35.645,-40.527,0.000
1718226386.026,-37.109,-53.223,-37.598,-40.039,0.000
1718226386.030,-34.180,-51.270,-37.109,-19.531,0.000
1718226386.034,-26.855,-49.316,-38.574,-11.719,0.000
1718226386.038,-20.508,-51.758,-30.762,-16.113,0.000
1718226386.042,-29.785,-55.664,-29.297,-0.977,0.000
1718226386.046,-32.227,-56.641,-32.227,2.930,0.000
1718226386.050,-26.855,-55.664,-26.855,-1.953,0.000
1718226386.054,-20.996,-49.805,-26.855,13.672,0.000
1718226386.057,-33.691,-55.176,-31.738,4.883,0.000
1718226386.061,-41.504,-63.965,-48.340,-26.855,0.000
1718226386.065,-36.133,-63.477,-53.223,-26.367,0.000
1718226386.069,-56.152,-66.895,-37.109,-18.066,0.000
1718226386.073,-54.688,-63.477,-51.758,-16.113,0.000
1718226386.077,-45.898,-62.988,-64.941,-25.391,0.000
1718226386.081,-49.805,-65.430,-37.109,-35.645,0.000
1718226386.085,-47.852,-62.012,-27.832,-36.133,0.000
1718226386.089,-39.551,-62.500,-34.180,-34.180,0.000
1718226386.093,-42.480,-61.523,-32.715,-41.504,0.000
1718226386.096,-64.453,-68.848,-34.668,-47.363,0.000
1718226386.100,-85.938,-77.637,-47.852,-63.477,0.000
1718226386.104,-86.426,-72.754,-53.223,-75.684,0.000
1718226386.108,-77.637,-70.312,-50.293,-77.637,0.000
1718226386.112,-73.242,-72.266,-40.039,-66.895,0.000
1718226386.116,-78.125,-74.707,-39.551,-63.965,0.000
1718226386.120,-67.871,-70.801,-44.922,-57.129,0.000
1718226386.124,-63.477,-70.312,-37.598,-55.664,0.000
1718226386.128,-67.383,-70.801,-24.902,-58.105,0.000
1718226386.132,-74.219,-74.219,-28.320,-64.453,0.000
1718226386.136,-81.543,-76.172,-31.738,-81.543,0.000
1718226386.139,-84.961,-83.008,-32.715,-77.148,0.000
1718226386.143,-89.355,-86.914,-36.133,-72.754,0.000
1718226386.147,-87.891,-84.961,-36.133,-80.566,0.000
1718226386.151,-91.797,-91.797,-28.809,-83.496,0.000
1718226386.155,-82.031,-83.984,-35.645,-74.219,0.000
1718226386.159,-96.680,-75.684,-45.410,-97.656,0.000
1718226386.163,-128.418,-82.031,-31.250,-127.441,0.000
1718226386.167,-125.977,-81.055,-24.902,-135.742,0.000
1718226386.171,-140.625,-88.867,-30.762,-153.320,0.000
1718226386.175,-174.316,-96.680,-38.086,-181.641,0.000
1718226386.179,-181.152,-86.914,-45.898,-194.336,0.000
1718226386.182,-195.801,-94.238,-41.016,-185.059,0.000
1718226386.186,-218.750,-108.887,-31.250,-200.684,0.000
1718226386.190,-220.703,-100.098,-16.602,-209.961,0.000
1718226386.194,-226.562,-100.586,-24.414,-224.121,0.000
1718226386.198,-243.652,-104.004,-35.156,-241.211,0.000
1718226386.202,-241.699,-101.074,-26.855,-235.352,0.000
1718226386.206,-242.676,-103.027,-22.461,-231.934,0.000
1718226386.210,-241.211,-98.145,-27.344,-238.770,0.000
1718226386.214,-234.375,-92.773,-37.598,-244.629,0.000
1718226386.218,-239.258,-93.262,-40.039,-245.117,0.000
1718226386.221,-238.770,-88.379,-35.156,-252.930,0.000
1718226386.225,-235.840,-87.891,-36.621,-251.953,0.000
1718226386.229,-221.191,-86.914,-34.180,-255.371,0.000
1718226386.233,-225.586,-84.473,-23.438,-254.883,0.000
1718226386.237,-249.023,-93.262,-28.320,-240.234,0.000
1718226386.241,-249.512,-98.145,-37.109,-242.188,0.000
1718226386.245,-226.074,-84.473,-34.668,-235.352,0.000
1718226386.249,-208.496,-75.684,-26.367,-229.004,0.000
1718226386.253,-222.656,-79.102,-44.922,-241.211,0.000
1718226386.257,-245.117,-83.008,-54.199,-254.395,0.000
1718226386.261,-218.750,-84.961,-40.039,-231.445,0.000
1718226386.264,-192.383,-76.660,-42.480,-213.867,0.000
1718226386.268,-183.594,-62.012,-35.645,-207.031,0.000
1718226386.272,-184.082,-60.547,-24.414,-184.570,0.000
1718226386.276,-187.500,-68.359,-23.926,-168.945,0.000
1718226386.280,-187.500,-69.824,-34.668,-172.852,0.000
1718226386.284,-194.336,-73.730,-56.152,-192.871,0.000
1718226386.288,-171.875,-69.336,-47.363,-180.176,0.000
1718226386.292,-163.086,-61.523,-28.320,-155.273,0.000
1718226386.296,-179.688,-67.871,-31.738,-157.715,0.000
1718226386.300,-175.781,-69.824,-36.133,-161.133,0.000
1718226386.304,-165.039,-74.219,-49.805,-169.922,0.000
1718226386.307,-148.438,-70.801,-50.293,-160.156,0.000
1718226386.311,-147.949,-77.637,-41.992,-143.066,0.000
1718226386.315,-151.367,-77.148,-38.086,-141.113,0.000
1718226386.319,-145.020,-69.824,-32.227,-127.930,0.000
1718226386.323,-153.809,-83.984,-34.668,-134.277,0.000
1718226386.327,-143.066,-84.961,-38.086,-145.996,0.000
1718226386.331,-139.160,-88.379,-39.551,-137.695,0.000
1718226386.335,-152.344,-92.773,-41.992,-130.859,0.000
1718226386.339,-147.461,-89.355,-33.691,-132.324,0.000
1718226386.343,-155.762,-91.309,-41.016,-121.582,0.000
1718226386.346,-161.133,-87.402,-53.711,-141.113,0.000
1718226386.350,-136.719,-80.566,-42.480,-144.043,0.000
1718226386.354,-122.559,-81.543,-40.527,-114.746,0.000
1718226386.358,-125.977,-80.078,-44.434,-102.539,0.000
1718226386.362,-111.328,-78.125,-33.691,-91.309,0.000
1718226386.366,-92.285,-69.824,-32.715,-91.797,0.000
1718226386.370,-84.961,-63.477,-48.828,-85.449,0.000
1718226386.374,-82.520,-66.406,-52.246,-62.500,0.000
1718226386.378,-75.195,-62.500,-53.711,-65.430,0.000
1718226386.382,-59.570,-59.570,-62.988,-51.270,0.000
1718226386.386,-41.504,-57.129,-53.223,-21.484,0.000
1718226386.389,-46.387,-50.781,-54.688,-21.484,0.000
1718226386.393,-45.898,-47.363,-65.430,-19.531,0.000
1718226386.397,-30.762,-44.434,-62.500,-15.625,0.000
1718226386.401,-37.109,-41.992,-73.730,-11.719,0.000
1718226386.405,-10.742,-28.320,-66.406,15.625,0.000
1718226386.409,15.137,-23.926,-60.059,18.066,0.000
1718226386.413,-1.953,-36.621,-76.660,-4.395,0.000
1718226386.417,-1.465,-31.738,-70.312,-3.906,0.000
1718226386.421,8.301,-22.949,-70.312,17.578,0.000
1718226386.425,10.742,-20.996,-70.801,30.762,0.000
1718226386.429,17.090,-23.926,-65.430,18.555,0.000
1718226386.432,28.809,-30.273,-68.359,35.645,0.000
1718226386.436,33.691,-26.855,-70.801,41.504,0.000
1718226386.440,35.645,-22.949,-75.684,44.922,0.000
1718226386.444,43.945,-25.391,-74.707,54.688,0.000
1718226386.448,41.504,-24.414,-74.219,66.406,0.000
1718226386.452,40.527,-19.043,-74.707,78.125,0.000
1718226386.456,49.316,-20.508,-73.242,87.891,0.000
1718226386.460,57.617,-26.855,-64.941,86.426,0.000
1718226386.464,60.547,-25.391,-60.547,80.566,0.000
1718226386.468,67.383,-25.879,-62.012,84.473,0.000
1718226386.472,72.266,-28.809,-66.406,84.961,0.000
1718226386.475,73.730,-20.996,-63.477,105.469,0.000
1718226386.479,81.055,-15.625,-53.711,92.773,0.000
1718226386.483,83.984,-20.996,-58.594,77.148,0.000
1718226386.487,93.262,-19.531,-63.965,97.656,0.000
1718226386.491,89.355,-16.113,-64.453,94.238,0.000
1718226386.495,76.172,-17.578,-61.523,85.938,0.000
1718226386.499,84.961,-22.461,-55.176,79.102,0.000
1718226386.503,85.449,-23.438,-50.781,69.336,0.000
1718226386.507,75.195,-20.508,-58.105,56.152,0.000
1718226386.511,68.359,-18.555,-59.082,56.152,0.000
1718226386.514,51.270,-21.484,-58.105,58.594,0.000
1718226386.518,58.105,-21.484,-60.059,62.012,0.000
1718226386.522,66.895,-22.949,-68.359,56.641,0.000
1718226386.526,59.082,-19.531,-70.312,57.617,0.000
1718226386.530,62.012,-9.277,-59.570,73.242,0.000
1718226386.534,65.918,-17.578,-61.035,89.355,0.000
1718226386.538,52.246,-27.832,-64.453,84.961,0.000
1718226386.542,41.016,-23.926,-62.012,73.730,0.000
1718226386.546,50.293,-23.926,-56.152,78.125,0.000
1718226386.550,53.223,-31.250,-55.176,72.266,0.000
1718226386.554,52.734,-36.621,-61.035,67.871,0.000
1718226386.557,60.547,-32.715,-58.594,80.566,0.000
1718226386.561,59.082,-23.926,-50.293,70.312,0.000
1718226386.565,46.875,-24.414,-44.434,56.152,0.000
1718226386.569,16.602,-34.668,-55.664,22.461,0.000
1718226386.573,16.602,-33.691,-61.523,-1.465,0.000
1718226386.577,21.484,-25.391,-48.828,10.254,0.000
1718226386.581,-6.348,-39.062,-50.781,-16.113,0.000
1718226386.585,-22.461,-49.805,-54.688,-31.250,0.000
1718226386.589,-28.809,-38.086,-50.293,-25.879,0.000
1718226386.593,-38.086,-50.781,-52.734,-40.527,0.000
1718226386.597,-51.758,-59.570,-47.852,-59.082,0.000
1718226386.600,-57.129,-53.711,-46.875,-67.383,0.000
1718226386.604,-37.598,-47.363,-52.734,-46.387,0.000
1718226386.608,-36.621,-51.270,-55.664,-45.410,0.000
1718226386.612,-34.668,-49.805,-43.945,-41.504,0.000
1718226386.616,-18.555,-41.992,-35.645,-22.461,0.000
1718226386.620,-11.230,-48.340,-47.363,-11.719,0.000
1718226386.624,0.488,-42.480,-56.152,-2.441,0.000
1718226386.628,3.906,-32.715,-53.223,16.113,0.000
1718226386.632,2.441,-36.133,-55.176,1.953,0.000
1718226386.636,0.488,-38.574,-54.199,-8.789,0.000
1718226386.639,1.465,-36.133,-50.293,10.254,0.000
1718226386.643,8.301,-40.039,-57.129,10.742,0.000
1718226386.647,7.324,-36.621,-60.547,18.555,0.000
1718226386.651,9.277,-28.320,-51.270,22.461,0.000
1718226386.655,6.836,-32.715,-45.410,12.695,0.000
1718226386.659,2.441,-35.645,-51.758,2.441,0.000
1718226386.663,3.906,-21.973,-45.410,8.301,0.000
1718226386.667,-8.789,-27.832,-42.969,0.488,0.000
1718226386.671,-9.766,-45.898,-59.570,-16.602,0.000
1718226386.675,-9.766,-41.992,-61.035,-11.719,0.000
1718226386.679,-13.672,-41.992,-58.105,-17.578,0.000
1718226386.682,-1.465,-41.016,-59.570,-21.973,0.000
1718226386.686,0.000,-37.109,-57.129,-12.207,0.000
1718226386.690,-5.371,-39.551,-52.246,-14.160,0.000
1718226386.694,-2.441,-36.133,-44.922,-4.395,0.000
1718226386.698,6.836,-34.180,-53.223,4.883,0.000
1718226386.702,-9.766,-41.992,-60.059,-10.742,0.000
1718226386.706,-37.598,-40.527,-53.223,-0.488,0.000
1718226386.710,-19.043,-31.738,-39.062,-1.953,0.000
1718226386.714,4.395,-41.016,-38.086,-8.789,0.000
1718226386.718,-9.277,-49.805,-52.246,7.324,0.000
1718226386.722,-17.090,-44.434,-58.594,8.301,0.000
1718226386.725,-5.371,-36.133,-44.434,1.953,0.000
1718226386.729,-15.137,-43.945,-37.109,0.977,0.000
1718226386.733,-9.766,-41.504,-44.922,2.441,0.000
1718226386.737,-5.859,-37.109,-41.992,4.883,0.000
1718226386.741,-16.602,-45.410,-40.039,1.953,0.000
1718226386.745,-8.789,-44.922,-39.551,-7.324,0.000
1718226386.749,-8.301,-47.852,-41.504,1.465,0.000
1718226386.753,-23.926,-54.688,-48.828,-5.859,0.000
1718226386.757,-31.738,-51.270,-41.016,-29.297,0.000
1718226386.761,-16.113,-46.875,-33.203,-12.207,0.000
1718226386.764,-16.602,-53.223,-46.387,-12.695,0.000
1718226386.768,-28.809,-50.293,-43.945,-21.973,0.000
1718226386.772,-19.531,-47.852,-32.227,-3.906,0.000
1718226386.776,-10.254,-50.781,-32.715,0.000,0.000
1718226386.780,-32.715,-55.176,-43.457,-20.020,0.000
1718226386.784,-43.457,-61.523,-51.270,-33.691,0.000
1718226386.788,-39.062,-55.664,-50.781,-25.879,0.000
1718226386.792,-41.992,-51.270,-53.223,-14.160,0.000
1718226386.796,-17.090,-49.805,-46.387,-19.043,0.000
1718226386.800,-20.508,-51.758,-36.133,-26.367,0.000
1718226386.804,-27.832,-50.781,-40.527,-17.578,0.000
1718226386.807,-11.719,-44.922,-37.109,-0.977,0.000
1718226386.811,-1.465,-48.340,-41.016,-15.625,0.000
1718226386.815,-8.301,-54.199,-48.340,-35.645,0.000
1718226386.819,-35.645,-52.734,-49.316,-20.508,0.000
1718226386.823,-32.715,-49.805,-55.664,-21.484,0.000
1718226386.827,-16.602,-51.758,-61.523,-31.250,0.000
1718226386.831,-24.414,-51.270,-43.945,-31.250,0.000
1718226386.835,-39.062,-56.152,-33.691,-40.039,0.000
1718226386.839,-35.156,-57.617,-35.645,-22.949,0.000
1718226386.843,-29.785,-51.270,-38.086,-13.672,0.000
1718226386.847,-41.504,-61.523,-49.316,-27.832,0.000
1718226386.850,-47.363,-65.430,-49.805,-26.855,0.000
1718226386.854,-46.875,-60.059,-51.270,-22.461,0.000
1718226386.858,-33.691,-60.547,-54.199,-26.855,0.000
1718226386.862,-6.348,-51.758,-57.617,-7.812,0.000
1718226386.866,-13.672,-48.340,-45.410,-9.766,0.000
1718226386.870,-46.387,-62.988,-34.668,-54.688,0.000
1718226386.874,-55.664,-63.477,-32.227,-42.480,0.000
1718226386.878,-53.711,-62.012,-30.273,-37.109,0.000
1718226386.882,-56.641,-63.965,-27.344,-53.223,0.000
1718226386.886,-62.500,-70.801,-25.879,-54.688,0.000
1718226386.889,-66.406,-83.984,-35.645,-41.504,0.000
1718226386.893,-49.805,-81.055,-34.668,-38.574,0.000
1718226386.897,-58.594,-77.637,-33.203,-52.734,0.000
1718226386.901,-84.961,-79.102,-40.039,-57.129,0.000
1718226386.905,-83.008,-78.125,-42.969,-68.848,0.000
1718226386.909,-61.035,-73.730,-38.086,-59.082,0.000
1718226386.913,-46.387,-69.336,-25.879,-41.992,0.000
1718226386.917,-59.082,-73.242,-33.691,-47.852,0.000
1718226386.921,-49.805,-77.148,-43.945,-40.527,0.000
1718226386.925,-34.668,-74.219,-35.156,-30.762,0.000
1718226386.929,-41.992,-70.312,-36.133,-51.758,0.000
1718226386.932,-41.992,-70.801,-41.016,-61.523,0.000
1718226386.936,-34.668,-59.082,-30.762,-36.133,0.000
1718226386.940,-43.457,-59.082,-33.691,-22.461,0.000
1718226386.944,-53.223,-65.918,-41.992,-43.457,0.000
1718226386.948,-36.133,-56.152,-37.109,-52.734,0.000
1718226386.952,-39.062,-60.547,-33.691,-46.875,0.000
1718226386.956,-39.551,-61.035,-36.133,-30.273,0.000
1718226386.960,-30.762,-48.828,-35.156,-17.090,0.000
1718226386.964,-35.645,-50.293,-35.645,-31.738,0.000
1718226386.968,-35.645,-58.594,-41.016,-47.852,0.000
1718226386.972,-49.316,-60.547,-44.922,-46.875,0.000
1718226386.975,-42.480,-52.246,-36.621,-35.156,0.000
1718226386.979,-16.602,-49.316,-40.039,-27.344,0.000
1718226386.983,-34.180,-61.035,-48.828,-28.809,0.000
1718226386.987,-47.852,-65.430,-43.945,-24.902,0.000
1718226386.991,-47.852,-61.035,-37.109,-17.578,0.000
1718226386.995,-43.457,-49.316,-36.133,-21.973,0.000
1718226386.999,-31.738,-52.734,-42.480,-43.457,0.000
1718226387.003,-32.227,-55.664,-34.668,-42.969,0.000
1718226387.007,-36.621,-49.805,-28.320,-42.480,0.000
1718226387.011,-36.133,-50.293,-37.598,-39.551,0.000
1718226387.015,-45.898,-56.641,-50.781,-28.320,0.000
1718226387.018,-41.016,-57.617,-47.363,-26.855,0.000
1718226387.022,-41.016,-62.500,-40.527,-40.527,0.000
1718226387.026,-37.598,-62.988,-40.039,-34.668,0.000
1718226387.030,-41.504,-54.688,-51.270,-35.156,0.000
1718226387.034,-43.457,-49.805,-50.293,-43.457,0.000
1718226387.038,-43.945,-44.922,-47.852,-38.086,0.000
1718226387.042,-35.156,-38.574,-43.457,-35.645,0.000
1718226387.046,-27.832,-42.480,-36.133,-24.414,0.000
1718226387.050,-43.457,-47.852,-46.875,-18.555,0.000
1718226387.054,-41.016,-43.457,-47.363,-28.809,0.000
1718226387.058,-27.832,-36.621,-43.457,-18.555,0.000
1718226387.061,-24.414,-41.016,-52.734,-22.461,0.000
1718226387.065,-17.578,-38.574,-44.922,-25.879,0.000
1718226387.069,-20.508,-41.992,-44.434,-23.438,0.000
1718226387.073,-32.227,-50.781,-51.758,-34.180,0.000
1718226387.077,-25.391,-49.316,-38.574,-38.574,0.000
1718226387.081,-21.973,-45.410,-36.621,-28.809,0.000
1718226387.085,-28.320,-46.387,-42.969,-27.832,0.000
1718226387.089,-21.973,-41.504,-29.297,-22.461,0.000
1718226387.093,-24.414,-41.016,-35.156,-27.344,0.000
1718226387.097,-28.320,-43.945,-55.664,-42.969,0.000
1718226387.100,-21.484,-42.480,-43.457,-30.762,0.000
1718226387.104,-38.086,-55.664,-53.223,-30.273,0.000
1718226387.108,-44.434,-54.199,-57.617,-42.480,0.000
1718226387.112,-43.945,-47.852,-47.852,-35.156,0.000
1718226387.116,-48.828,-50.293,-45.898,-34.668,0.000
1718226387.120,-47.363,-45.898,-37.109,-38.086,0.000
1718226387.124,-51.270,-49.316,-33.203,-29.785,0.000
1718226387.128,-55.176,-48.828,-39.551,-49.805,0.000
1718226387.132,-40.527,-37.598,-39.062,-51.758,0.000
1718226387.136,-42.969,-41.992,-35.645,-24.414,0.000
1718226387.140,-53.711,-46.387,-33.691,-29.785,0.000
1718226387.143,-45.898,-41.992,-43.457,-43.945,0.000
1718226387.147,-46.387,-50.293,-59.570,-44.434,0.000
1718226387.151,-58.594,-53.711,-51.758,-36.621,0.000
1718226387.155,-47.852,-44.922,-31.738,-17.090,0.000
1718226387.159,-46.875,-49.316,-35.156,-34.180,0.000
1718226387.163,-51.758,-53.711,-41.504,-42.480,0.000
1718226387.167,-50.781,-48.828,-41.016,-38.086,0.000
1718226387.171,-58.105,-54.688,-54.199,-54.688,0.000
1718226387.175,-45.898,-54.688,-67.383,-37.598,0.000
1718226387.179,-29.785,-49.805,-54.199,-21.973,0.000
1718226387.183,-41.016,-54.199,-50.781,-38.086,0.000
1718226387.186,-45.410,-54.688,-61.523,-39.551,0.000
1718226387.190,-29.297,-48.828,-49.805,-29.297,0.000
1718226387.194,-30.762,-41.992,-45.898,-32.715,0.000
1718226387.198,-34.180,-42.969,-40.527,-43.945,0.000
1718226387.202,-37.109,-41.016,-34.180,-57.617,0.000
1718226387.206,-42.480,-42.480,-40.527,-51.270,0.000
1718226387.210,-30.273,-51.270,-49.805,-34.180,0.000
1718226387.214,-25.391,-44.922,-47.852,-36.133,0.000
1718226387.218,-42.969,-42.969,-44.434,-44.434,0.000
1718226387.222,-35.156,-38.574,-37.109,-49.805,0.000
1718226387.225,-27.344,-41.992,-42.480,-42.480,0.000
1718226387.229,-37.109,-45.898,-46.387,-40.039,0.000
1718226387.233,-29.785,-33.203,-40.039,-44.922,0.000
1718226387.237,-22.949,-35.645,-60.547,-47.852,0.000
1718226387.241,-41.504,-46.875,-55.176,-58.594,0.000
1718226387.245,-43.457,-48.340,-33.691,-66.895,0.000
1718226387.249,-42.969,-49.805,-38.086,-63.965,0.000
1718226387.253,-50.781,-53.711,-39.551,-62.012,0.000
1718226387.257,-47.363,-51.270,-34.668,-54.688,0.000
1718226387.261,-47.363,-51.270,-38.086,-65.430,0.000
1718226387.265,-67.871,-52.734,-41.016,-62.012,0.000
1718226387.268,-84.473,-54.688,-35.645,-60.547,0.000
1718226387.272,-92.285,-52.246,-38.086,-78.613,0.000
1718226387.276,-115.234,-52.246,-42.969,-108.398,0.000
1718226387.280,-120.605,-50.781,-28.320,-117.676,0.000
1718226387.284,-113.770,-49.805,-23.926,-101.074,0.000
1718226387.288,-122.559,-50.781,-26.855,-119.629,0.000
1718226387.292,-136.230,-47.852,-29.297,-134.277,0.000
1718226387.296,-147.461,-50.781,-23.926,-132.324,0.000
1718226387.300,-160.156,-62.988,-22.461,-151.367,0.000
1718226387.304,-169.922,-69.824,-31.738,-171.387,0.000
1718226387.308,-178.223,-64.941,-30.762,-180.664,0.000
1718226387.311,-192.383,-66.895,-41.016,-201.172,0.000
1718226387.315,-196.289,-70.801,-38.086,-187.500,0.000
1718226387.319,-205.078,-58.105,-29.785,-185.547,0.000
1718226387.323,-207.031,-51.758,-26.367,-213.867,0.000
1718226387.327,-196.777,-66.406,-24.414,-203.125,0.000
1718226387.331,-209.961,-76.172,-30.762,-201.660,0.000
1718226387.335,-206.055,-69.336,-22.461,-208.496,0.000
1718226387.339,-181.641,-55.664,-30.762,-195.801,0.000
1718226387.343,-185.547,-53.711,-29.297,-167.969,0.000
1718226387.347,-188.965,-61.523,-23.926,-166.504,0.000
1718226387.350,-177.246,-58.594,-37.109,-168.457,0.000
1718226387.354,-163.086,-49.805,-41.504,-138.672,0.000
1718226387.358,-149.902,-53.711,-42.969,-121.094,0.000
1718226387.362,-128.906,-55.176,-41.992,-109.375,0.000
1718226387.366,-109.863,-44.922,-40.039,-117.676,0.000
1718226387.370,-89.355,-37.598,-38.086,-100.586,0.000
1718226387.374,-67.383,-33.691,-42.969,-65.430,0.000
1718226387.378,-57.617,-35.645,-50.293,-62.012,0.000
1718226387.382,-31.250,-30.762,-39.551,-47.363,0.000
1718226387.386,0.488,-29.785,-35.645,-35.156,0.000
1718226387.390,5.859,-28.320,-47.852,-3.906,0.000
1718226387.393,7.324,-25.879,-53.711,15.137,0.000
1718226387.397,31.250,-25.391,-56.641,14.160,0.000
1718226387.401,43.457,-17.578,-49.805,37.598,0.000
1718226387.405,50.293,-11.719,-45.898,41.504,0.000
1718226387.409,56.641,-15.137,-49.805,39.551,0.000
1718226387.413,70.312,-10.254,-42.480,56.152,0.000
1718226387.417,71.289,-15.625,-55.664,70.312,0.000
1718226387.421,61.035,-27.344,-73.730,70.312,0.000
1718226387.425,68.359,-19.531,-70.801,60.059,0.000
1718226387.429,83.008,-9.277,-58.594,69.336,0.000
1718226387.433,87.402,-12.207,-45.410,81.543,0.000
1718226387.436,87.402,-15.625,-49.805,84.473,0.000
1718226387.440,79.590,-22.949,-56.641,79.102,0.000
1718226387.444,83.496,-27.832,-50.781,88.867,0.000
1718226387.448,84.961,-30.273,-49.316,88.867,0.000
1718226387.452,77.148,-30.762,-47.852,81.055,0.000
1718226387.456,87.402,-22.949,-47.363,91.309,0.000
1718226387.460,79.102,-28.320,-59.570,80.078,0.000
1718226387.464,75.684,-29.297,-48.828,81.543,0.000
1718226387.468,70.312,-27.344,-47.363,74.707,0.000
1718226387.472,78.125,-28.809,-54.688,64.941,0.000
1718226387.475,75.195,-28.320,-50.293,66.895,0.000
1718226387.479,53.223,-31.250,-48.828,56.641,0.000
1718226387.483,40.527,-30.273,-46.875,62.500,0.000
1718226387.487,44.434,-28.809,-49.316,55.664,0.000
1718226387.491,54.688,-20.508,-47.363,49.316,0.000
1718226387.495,43.457,-26.855,-47.363,43.457,0.000
1718226387.499,35.645,-35.156,-52.734,49.805,0.000
1718226387.503,41.016,-28.320,-56.152,51.270,0.000
1718226387.507,48.340,-22.949,-39.551,42.480,0.000
1718226387.511,48.340,-22.949,-35.156,53.711,0.000
1718226387.515,48.828,-27.832,-42.969,55.176,0.000
1718226387.518,46.387,-29.297,-44.434,46.875,0.000
1718226387.522,37.109,-31.738,-41.992,34.668,0.000
1718226387.526,39.551,-26.367,-36.621,36.133,0.000
1718226387.530,27.344,-23.438,-39.062,45.898,0.000
1718226387.534,22.461,-29.297,-50.293,32.227,0.000
1718226387.538,26.367,-27.832,-53.711,32.715,0.000
1718226387.542,28.809,-20.508,-53.711,41.992,0.000
